;  Optical constants for Au
;  
;  Concatenation of:
; 
;  Au_llnl_cxro + Au_palik
;   
;    Lambda (A)            n            k
;-----------------------------------------
      0.12398000       0.99999968    9.2447199e-09
      0.12499080       0.99999968    9.5210043e-09
      0.12600983       0.99999967    9.8057875e-09
      0.12703718       0.99999967    1.0099200e-08
      0.12807290       0.99999966    1.0400680e-08
      0.12911707       0.99999966    1.0711717e-08
      0.13016975       0.99999965    1.1031249e-08
      0.13123101       0.99999965    1.1362680e-08
      0.13230092       0.99999964    1.1705047e-08
      0.13337956       0.99999963    1.2057353e-08
      0.13446699       0.99999963    1.2420323e-08
      0.13556329       0.99999962    1.2790813e-08
      0.13666852       0.99999962    1.3172320e-08
      0.13778277       0.99999961    1.3561464e-08
      0.13890610       0.99999961    1.3956922e-08
      0.14003858       0.99999960    1.4360285e-08
      0.14118030       0.99999959    1.4772379e-08
      0.14233133       0.99999959    1.5194637e-08
      0.14349175       0.99999958    1.5637935e-08
      0.14466162       0.99999957    1.6103851e-08
      0.14584103       0.99999957    1.6593939e-08
      0.14703006       0.99999956    1.7104352e-08
      0.14822878       0.99999956    1.7588199e-08
      0.14943728       0.99999955    1.8075142e-08
      0.15065563       0.99999955    1.8630933e-08
      0.15188391       0.99999954    1.9169949e-08
      0.15312220       0.99999955    4.0475230e-09
      0.15437059       0.99999953    4.1738333e-09
      0.15562916       0.99999952    4.3043596e-09
      0.15689799       0.99999951    4.4383740e-09
      0.15817716       0.99999950    4.5762493e-09
      0.15946677       0.99999949    4.7191345e-09
      0.16076688       0.99999948    4.8649115e-09
      0.16207760       0.99999947    5.0168878e-09
      0.16339900       0.99999946    5.1724171e-09
      0.16473118       0.99999945    5.3334104e-09
      0.16607422       0.99999944    5.5000449e-09
      0.16742821       0.99999943    5.6715400e-09
      0.16879323       0.99999942    5.8468863e-09
      0.17016939       0.99999941    6.0301453e-09
      0.17155676       0.99999940    6.2171126e-09
      0.17295545       0.99999939    6.4102373e-09
      0.17436554       0.99999938    6.6092889e-09
      0.17578712       0.99999937    6.8154538e-09
      0.17722030       0.99999936    7.0267642e-09
      0.17866516       0.99999935    7.2459049e-09
      0.18012180       0.99999934    7.4707747e-09
      0.18159031       0.99999933    7.7032221e-09
      0.18307080       0.99999932    7.9422194e-09
      0.18456336       0.99999930    8.1890382e-09
      0.18606809       0.99999929    8.4439113e-09
      0.18758508       0.99999928    8.7063526e-09
      0.18911444       0.99999927    8.9772442e-09
      0.19065628       0.99999926    9.2553957e-09
      0.19221068       0.99999924    9.5440589e-09
      0.19377775       0.99999923    9.8390671e-09
      0.19535760       0.99999922    1.0146000e-08
      0.19695034       0.99999920    1.0459697e-08
      0.19855605       0.99999919    1.0784732e-08
      0.20017486       0.99999918    1.1120205e-08
      0.20180687       0.99999916    1.1464662e-08
      0.20345218       0.99999915    1.1820834e-08
      0.20511091       0.99999914    1.2188553e-08
      0.20678315       0.99999912    1.2565700e-08
      0.20846904       0.99999911    1.2955431e-08
      0.21016867       0.99999909    1.3358573e-08
      0.21188215       0.99999908    1.3769906e-08
      0.21360961       0.99999906    1.4196455e-08
      0.21535114       0.99999905    1.4636176e-08
      0.21710688       0.99999903    1.5090807e-08
      0.21887693       0.99999902    1.5557955e-08
      0.22066141       0.99999900    1.6039976e-08
      0.22246045       0.99999898    1.6537905e-08
      0.22427414       0.99999897    1.7050173e-08
      0.22610263       0.99999895    1.7576902e-08
      0.22794602       0.99999893    1.8121179e-08
      0.22980444       0.99999891    1.8678011e-08
      0.23167802       0.99999889    1.9258101e-08
      0.23356687       0.99999888    1.9849916e-08
      0.23547111       0.99999886    2.0465652e-08
      0.23739089       0.99999884    2.1096688e-08
      0.23932631       0.99999882    2.1747963e-08
      0.24127752       0.99999880    2.2421222e-08
      0.24324463       0.99999878    2.3109419e-08
      0.24522778       0.99999876    2.3827933e-08
      0.24722710       0.99999874    2.4561016e-08
      0.24924272       0.99999872    2.5315863e-08
      0.25127477       0.99999870    2.6096653e-08
      0.25332339       0.99999868    2.6901937e-08
      0.25538871       0.99999865    2.7731842e-08
      0.25747087       0.99999863    2.8584707e-08
      0.25957000       0.99999861    2.9466284e-08
      0.26168625       0.99999859    3.0374987e-08
      0.26381975       0.99999856    3.1310774e-08
      0.26597065       0.99999854    3.2275851e-08
      0.26813908       0.99999851    3.3270692e-08
      0.27032520       0.99999849    3.4297790e-08
      0.27252913       0.99999847    3.5355708e-08
      0.27475103       0.99999844    3.6445136e-08
      0.27699105       0.99999841    3.7567852e-08
      0.27924933       0.99999839    3.8719942e-08
      0.28152603       0.99999836    3.9912373e-08
      0.28382128       0.99999833    4.1137851e-08
      0.28613525       0.99999831    4.2406275e-08
      0.28846808       0.99999828    4.3702026e-08
      0.29081993       0.99999825    4.5051454e-08
      0.29319096       0.99999822    4.6429433e-08
      0.29558132       0.99999819    4.7865886e-08
      0.29799117       0.99999816    4.9331432e-08
      0.30042066       0.99999813    5.0850406e-08
      0.30286996       0.99999810    5.2411081e-08
      0.30533923       0.99999807    5.4025541e-08
      0.30782863       0.99999804    5.5688109e-08
      0.31033833       0.99999801    5.7388893e-08
      0.31286848       0.99999797    5.9150286e-08
      0.31541927       0.99999794    6.0964554e-08
      0.31799085       0.99999790    6.2828134e-08
      0.32058340       0.99999787    6.4759254e-08
      0.32319709       0.99999784    6.6743823e-08
      0.32583208       0.99999780    6.8786671e-08
      0.32848856       0.99999776    7.0895361e-08
      0.33116670       0.99999773    7.3058941e-08
      0.33386667       0.99999769    7.5295621e-08
      0.33658865       0.99999765    7.7598805e-08
      0.33933282       0.99999761    7.9966078e-08
      0.34209937       0.99999757    8.2416799e-08
      0.34488847       0.99999753    8.4931864e-08
      0.34770032       0.99999749    8.7527924e-08
      0.35053508       0.99999745    9.0205537e-08
      0.35339296       0.99999741    9.2964825e-08
      0.35627414       0.99999737    9.5800934e-08
      0.35917881       0.99999732    9.8716490e-08
      0.36210716       0.99999728    1.0173115e-07
      0.36505938       0.99999723    1.0482910e-07
      0.36803568       0.99999719    1.0802643e-07
      0.37103624       0.99999714    1.1131276e-07
      0.37406126       0.99999709    1.1471293e-07
      0.37711095       0.99999705    1.1820724e-07
      0.38018549       0.99999700    1.2179897e-07
      0.38328511       0.99999695    1.2551045e-07
      0.38641000       0.99999690    1.2934057e-07
      0.38956036       0.99999685    1.3327484e-07
      0.39273641       0.99999680    1.3733277e-07
      0.39593835       0.99999674    1.4151437e-07
      0.39916640       0.99999669    1.4582924e-07
      0.40242076       0.99999663    1.5025834e-07
      0.40570166       0.99999658    1.5484734e-07
      0.40900931       0.99999652    1.5918324e-07
      0.41234392       0.99999646    1.6296713e-07
      0.41570572       0.99999640    1.6766295e-07
      0.41909493       0.99999634    1.7277528e-07
      0.42251177       0.99999628    1.7806760e-07
      0.42595647       0.99999622    1.8349279e-07
      0.42942925       0.99999616    1.8911102e-07
      0.43293034       0.99999610    1.9486733e-07
      0.43645998       0.99999603    2.0083069e-07
      0.44001840       0.99999597    2.0693784e-07
      0.44360583       0.99999590    2.1326802e-07
      0.44722250       0.99999583    2.1974789e-07
      0.45086866       0.99999577    2.2646595e-07
      0.45454455       0.99999570    2.3333961e-07
      0.45825041       0.99999563    2.4046908e-07
      0.46198648       0.99999555    2.4776044e-07
      0.46575301       0.99999548    2.5532632e-07
      0.46955025       0.99999541    2.6306007e-07
      0.47337845       0.99999533    2.7108898e-07
      0.47723786       0.99999526    2.7929258e-07
      0.48112873       0.99999518    2.8781073e-07
      0.48505133       0.99999510    2.9651006e-07
      0.48900590       0.99999502    3.0554696e-07
      0.49299272       0.99999494    3.1477173e-07
      0.49701204       0.99999486    3.2435755e-07
      0.50106413       0.99999477    3.3414088e-07
      0.50514926       0.99999469    3.4430667e-07
      0.50926770       0.99999460    3.5468432e-07
      0.51341971       0.99999451    3.6546216e-07
      0.51760557       0.99999442    3.7646964e-07
      0.52182555       0.99999433    3.8789475e-07
      0.52607995       0.99999424    3.9956836e-07
      0.53036903       0.99999415    4.1167772e-07
      0.53469307       0.99999405    4.2405583e-07
      0.53905238       0.99999396    4.3688982e-07
      0.54344722       0.99999386    4.5001427e-07
      0.54787789       0.99999376    4.6361555e-07
      0.55234469       0.99999366    4.7753016e-07
      0.55684790       0.99999356    4.9194201e-07
      0.56138783       0.99999345    5.0669201e-07
      0.56596477       0.99999335    5.2196177e-07
      0.57057902       0.99999324    5.3759604e-07
      0.57523090       0.99999313    5.5377055e-07
      0.57992070       0.99999302    5.7033779e-07
      0.58464874       0.99999291    5.8747175e-07
      0.58941532       0.99999279    6.0502886e-07
      0.59422077       0.99999268    6.2317543e-07
      0.59906539       0.99999256    6.4177792e-07
      0.60394951       0.99999244    6.6099612e-07
      0.60887346       0.99999232    6.8070346e-07
      0.61383754       0.99999220    7.0105068e-07
      0.61884210       0.99999208    7.2192450e-07
      0.62388746       0.99999195    7.4346662e-07
      0.62897395       0.99999182    7.6557362e-07
      0.63410192       0.99999169    7.8837416e-07
      0.63927169       0.99999156    8.1178285e-07
      0.64448361       0.99999143    8.3591692e-07
      0.64973802       0.99999129    8.6070245e-07
      0.65503527       0.99999116    8.8624079e-07
      0.66037571       0.99999102    9.1247740e-07
      0.66575969       0.99999088    9.3950113e-07
      0.67118757       0.99999073    9.6727107e-07
      0.67665969       0.99999059    9.9585556e-07
      0.68217644       0.99999044    1.0252396e-06
      0.68773815       0.99999030    1.0554740e-06
      0.69334522       0.99999015    1.0865653e-06
      0.69899799       0.99998999    1.1185418e-06
      0.70469686       0.99998984    1.1514301e-06
      0.71044218       0.99998968    1.1852335e-06
      0.71623435       0.99998953    1.2200165e-06
      0.72207374       0.99998937    1.2557557e-06
      0.72796073       0.99998921    1.2925394e-06
      0.73389573       0.99998904    1.3303140e-06
      0.73987911       0.99998888    1.3691999e-06
      0.74591127       0.99998871    1.4091150e-06
      0.75199261       0.99998854    1.4502170e-06
      0.75812354       0.99998838    1.4923892e-06
      0.76430445       0.99998820    1.5358195e-06
      0.77053575       0.99998803    1.5803591e-06
      0.77681785       0.99998786    1.6262416e-06
      0.78315117       0.99998768    1.6732775e-06
      0.78953613       0.99998751    1.7217493e-06
      0.79597314       0.99998733    1.7714187e-06
      0.80246263       0.99998716    1.8226022e-06
      0.80900503       0.99998698    1.8750221e-06
      0.81560077       0.99998681    1.9290538e-06
      0.82225028       0.99998663    1.9843709e-06
      0.82895401       0.99998646    2.0413968e-06
      0.83571239       0.99998629    2.0997542e-06
      0.84252588       0.99998614    2.1599229e-06
      0.84939491       0.99998599    2.2214706e-06
      0.85631994       0.99998610    2.2850811e-06
      0.86330144       0.99998628    2.3501639e-06
      0.87033985       0.99998563    2.1064385e-06
      0.87743565       0.99998531    2.1698833e-06
      0.88458929       0.99998513    2.2356947e-06
      0.89180126       0.99998498    2.3030214e-06
      0.89907203       0.99998577    2.3726935e-06
      0.90640208       0.99998495    1.7527139e-06
      0.91379189       0.99998434    1.8067348e-06
      0.92124195       0.99998394    1.8619219e-06
      0.92875274       0.99998363    1.9192762e-06
      0.93632477       0.99998333    1.9778757e-06
      0.94395854       0.99998305    2.0388283e-06
      0.95165454       0.99998277    2.1010772e-06
      0.95941329       0.99998251    2.1658225e-06
      0.96723529       0.99998224    2.2319114e-06
      0.97512107       0.99998199    2.3007193e-06
      0.98307114       0.99998174    2.3709501e-06
      0.99108602       0.99998151    2.4440245e-06
      0.99916625       0.99998128    2.5186442e-06
       1.0073124       0.99998110    2.5962703e-06
       1.0155249       0.99998093    2.6755748e-06
       1.0238044       0.99998091    2.7579855e-06
       1.0321513       0.99998120    2.8421859e-06
       1.0405664       0.99998427    1.1744292e-06
       1.0490500       0.99998030    1.2091217e-06
       1.0576028       0.99997965    1.2449348e-06
       1.0662253       0.99997902    1.2815668e-06
       1.0749182       0.99997852    1.3195687e-06
       1.0836819       0.99997802    1.3584596e-06
       1.0925170       0.99997756    1.3987871e-06
       1.1014242       0.99997709    1.4400789e-06
       1.1104040       0.99997664    1.4828689e-06
       1.1194570       0.99997618    1.5267014e-06
       1.1285839       0.99997572    1.5721002e-06
       1.1377851       0.99997526    1.6186268e-06
       1.1470613       0.99997480    1.6667969e-06
       1.1564132       0.99997433    1.7161889e-06
       1.1658413       0.99997386    1.7673050e-06
       1.1753463       0.99997338    1.8197403e-06
       1.1849288       0.99997290    1.8739723e-06
       1.1945894       0.99997241    1.9296330e-06
       1.2043288       0.99997192    1.9871817e-06
       1.2141476       0.99997142    2.0462691e-06
       1.2240464       0.99997091    2.1073192e-06
       1.2340259       0.99997039    2.1700397e-06
       1.2440868       0.99996987    2.2348265e-06
       1.2542298       0.99996934    2.3014176e-06
       1.2644554       0.99996880    2.3701766e-06
       1.2747644       0.99996826    2.4408729e-06
       1.2851574       0.99996771    2.5138173e-06
       1.2956351       0.99996715    2.5888537e-06
       1.3061983       0.99996658    2.6662417e-06
       1.3168476       0.99996600    2.7458761e-06
       1.3275838       0.99996541    2.8279555e-06
       1.3384074       0.99996481    2.9124519e-06
       1.3493193       0.99996421    2.9994996e-06
       1.3603202       0.99996359    3.0891569e-06
       1.3714108       0.99996297    3.1814866e-06
       1.3825918       0.99996233    3.2766206e-06
       1.3938639       0.99996169    3.3745355e-06
       1.4052279       0.99996103    3.4754987e-06
       1.4166846       0.99996037    3.5793896e-06
       1.4282347       0.99995969    3.6865513e-06
       1.4398790       0.99995901    3.7967645e-06
       1.4516182       0.99995831    3.9104935e-06
       1.4634531       0.99995760    4.0273951e-06
       1.4753845       0.99995688    4.1480711e-06
       1.4874131       0.99995615    4.2720528e-06
       1.4995399       0.99995541    4.4000567e-06
       1.5117655       0.99995466    4.5314822e-06
       1.5240907       0.99995389    4.6672431e-06
       1.5365165       0.99995311    4.8065713e-06
       1.5490436       0.99995232    4.9505610e-06
       1.5616728       0.99995152    5.0982818e-06
       1.5744049       0.99995071    5.2510176e-06
       1.5872409       0.99994988    5.4076384e-06
       1.6001815       0.99994904    5.5696544e-06
       1.6132277       0.99994818    5.7357215e-06
       1.6263801       0.99994731    5.9076001e-06
       1.6396399       0.99994643    6.0837015e-06
       1.6530077       0.99994554    6.2658890e-06
       1.6664845       0.99994463    6.4524230e-06
       1.6800712       0.99994370    6.6455364e-06
       1.6937687       0.99994276    6.8431828e-06
       1.7075778       0.99994181    7.0479791e-06
       1.7214995       0.99994084    7.2575091e-06
       1.7355347       0.99993986    7.4747006e-06
       1.7496844       0.99993886    7.6968152e-06
       1.7639494       0.99993785    7.9269398e-06
       1.7783307       0.99993682    8.1621580e-06
       1.7928292       0.99993577    8.4060394e-06
       1.8074460       0.99993471    8.6552113e-06
       1.8221819       0.99993363    8.9136236e-06
       1.8370380       0.99993254    9.1775337e-06
       1.8520152       0.99993142    9.4514160e-06
       1.8671145       0.99993030    9.7310071e-06
       1.8823369       0.99992915    1.0021150e-05
       1.8976834       0.99992799    1.0317227e-05
       1.9131550       0.99992681    1.0624596e-05
       1.9287528       0.99992561    1.0938282e-05
       1.9444777       0.99992439    1.1263638e-05
       1.9603309       0.99992316    1.1595823e-05
       1.9763133       0.99992190    1.1940352e-05
       1.9924260       0.99992063    1.2292434e-05
       2.0086700       0.99991934    1.2659470e-05
       2.0250465       0.99991803    1.3034676e-05
       2.0415565       0.99991671    1.3424752e-05
       2.0582011       0.99991537    1.3818743e-05
       2.0749815       0.99991400    1.4192763e-05
       2.0918986       0.99991261    1.4584366e-05
       2.1089536       0.99991122    1.5043173e-05
       2.1261477       0.99990980    1.5502638e-05
       2.1434820       0.99990837    1.5929452e-05
       2.1609576       0.99990691    1.6369471e-05
       2.1785757       0.99990541    1.6837988e-05
       2.1963374       0.99990388    1.7318368e-05
       2.2142439       0.99990234    1.7817422e-05
       2.2322964       0.99990077    1.8329590e-05
       2.2504961       0.99989919    1.8861920e-05
       2.2688442       0.99989758    1.9407609e-05
       2.2873419       0.99989593    1.9971746e-05
       2.3059904       0.99989429    2.0563119e-05
       2.3247909       0.99989268    2.1205492e-05
       2.3437447       0.99989104    2.1811973e-05
       2.3628530       0.99988935    2.2323630e-05
       2.3821171       0.99988762    2.2890647e-05
       2.4015383       0.99988582    2.3558147e-05
       2.4211178       0.99988402    2.4229949e-05
       2.4408569       0.99988221    2.4899184e-05
       2.4607570       0.99988037    2.5580003e-05
       2.4808193       0.99987848    2.6271717e-05
       2.5010452       0.99987656    2.6994358e-05
       2.5214360       0.99987462    2.7756251e-05
       2.5419930       0.99987265    2.8536285e-05
       2.5627176       0.99987065    2.9335687e-05
       2.5836112       0.99986863    3.0163802e-05
       2.6046751       0.99986658    3.1023608e-05
       2.6259108       0.99986451    3.1908644e-05
       2.6473196       0.99986242    3.2819976e-05
       2.6689029       0.99986031    3.3758505e-05
       2.6906622       0.99985817    3.4724532e-05
       2.7125989       0.99985600    3.5713768e-05
       2.7347145       0.99985381    3.6726202e-05
       2.7570104       0.99985161    3.7773561e-05
       2.7794880       0.99984938    3.8853604e-05
       2.8021489       0.99984712    3.9943897e-05
       2.8249946       0.99984483    4.1047529e-05
       2.8480265       0.99984256    4.2211701e-05
       2.8712461       0.99984028    4.3424592e-05
