;  Optical constants for 
;  
;  Concatenation of:
;
;  Mo_llnl_cxro + Mo_palik
;
;    Lambda (A)            n            k
;-----------------------------------------
      0.12398000       0.99999981    9.0297973e-10
      0.12499080       0.99999981    9.3226850e-10
      0.12600983       0.99999981    9.6254429e-10
      0.12703718       0.99999981    9.9381361e-10
      0.12807290       0.99999980    1.0260079e-09
      0.12911707       0.99999980    1.0593167e-09
      0.13016975       0.99999980    1.0935974e-09
      0.13123101       0.99999979    1.1290138e-09
      0.13230092       0.99999979    1.1655684e-09
      0.13337956       0.99999979    1.2032708e-09
      0.13446699       0.99999978    1.2424471e-09
      0.13556329       0.99999978    1.2824848e-09
      0.13666852       0.99999977    1.3242505e-09
      0.13778277       0.99999977    1.3668885e-09
      0.13890610       0.99999977    1.4111375e-09
      0.14003858       0.99999976    1.4567644e-09
      0.14118030       0.99999976    1.5038306e-09
      0.14233133       0.99999976    1.5525877e-09
      0.14349175       0.99999975    1.6025141e-09
      0.14466162       0.99999975    1.6545526e-09
      0.14584103       0.99999974    1.7076559e-09
      0.14703006       0.99999974    1.7629685e-09
      0.14822878       0.99999973    1.8199402e-09
      0.14943728       0.99999973    1.8786101e-09
      0.15065563       0.99999973    1.9397109e-09
      0.15188391       0.99999972    2.0020605e-09
      0.15312220       0.99999972    2.0670565e-09
      0.15437059       0.99999971    2.1337097e-09
      0.15562916       0.99999971    2.2023167e-09
      0.15689799       0.99999970    2.2732696e-09
      0.15817716       0.99999970    2.3466919e-09
      0.15946677       0.99999969    2.4225919e-09
      0.16076688       0.99999969    2.5000367e-09
      0.16207760       0.99999968    2.5809473e-09
      0.16339900       0.99999968    2.6637829e-09
      0.16473118       0.99999967    2.7496350e-09
      0.16607422       0.99999967    2.8382124e-09
      0.16742821       0.99999966    2.9293746e-09
      0.16879323       0.99999966    3.0234645e-09
      0.17016939       0.99999965    3.1206637e-09
      0.17155676       0.99999964    3.2211654e-09
      0.17295545       0.99999964    3.3248519e-09
      0.17436554       0.99999963    3.4315041e-09
      0.17578712       0.99999963    3.5421259e-09
      0.17722030       0.99999962    3.6555419e-09
      0.17866516       0.99999961    3.7730464e-09
      0.18012180       0.99999961    3.8936978e-09
      0.18159031       0.99999960    4.0185439e-09
      0.18307080       0.99999959    4.1470080e-09
      0.18456336       0.99999959    4.2798100e-09
      0.18606809       0.99999958    4.4170883e-09
      0.18758508       0.99999957    4.5585541e-09
      0.18911444       0.99999957    4.7047254e-09
      0.19065628       0.99999956    4.8549070e-09
      0.19221068       0.99999955    5.0108652e-09
      0.19377775       0.99999955    5.1702840e-09
      0.19535760       0.99999954    5.3363885e-09
      0.19695034       0.99999953    5.5061998e-09
      0.19855605       0.99999952    5.6824093e-09
      0.20017486       0.99999952    5.8644128e-09
      0.20180687       0.99999951    6.0513938e-09
      0.20345218       0.99999950    6.2450090e-09
      0.20511091       0.99999949    6.4450529e-09
      0.20678315       0.99999948    6.6502591e-09
      0.20846904       0.99999947    6.8620277e-09
      0.21016867       0.99999947    7.0812934e-09
      0.21188215       0.99999946    7.3050388e-09
      0.21360961       0.99999945    7.5373378e-09
      0.21535114       0.99999944    7.7769904e-09
      0.21710688       0.99999943    8.0249950e-09
      0.21887693       0.99999942    8.2799863e-09
      0.22066141       0.99999941    8.5433446e-09
      0.22246045       0.99999940    8.8156524e-09
      0.22427414       0.99999939    9.0959893e-09
      0.22610263       0.99999938    9.3844428e-09
      0.22794602       0.99999937    9.6828268e-09
      0.22980444       0.99999936    9.9881845e-09
      0.23167802       0.99999935    1.0306777e-08
      0.23356687       0.99999934    1.0631845e-08
      0.23547111       0.99999933    1.0970422e-08
      0.23739089       0.99999932    1.1317528e-08
      0.23932631       0.99999931    1.1674921e-08
      0.24127752       0.99999929    1.2044724e-08
      0.24324463       0.99999928    1.2426060e-08
      0.24522778       0.99999927    1.2819992e-08
      0.24722710       0.99999926    1.3226620e-08
      0.24924272       0.99999925    1.3645148e-08
      0.25127477       0.99999924    1.4076184e-08
      0.25332339       0.99999922    1.4520507e-08
      0.25538871       0.99999921    1.4979219e-08
      0.25747087       0.99999920    1.5453095e-08
      0.25957000       0.99999918    1.5939966e-08
      0.26168625       0.99999917    1.6440687e-08
      0.26381975       0.99999916    1.6956583e-08
      0.26597065       0.99999914    1.7490361e-08
      0.26813908       0.99999913    1.8040483e-08
      0.27032520       0.99999911    1.8607875e-08
      0.27252913       0.99999910    1.9193190e-08
      0.27475103       0.99999909    1.9796124e-08
      0.27699105       0.99999907    2.0417679e-08
      0.27924933       0.99999905    2.1055671e-08
      0.28152603       0.99999904    2.1716368e-08
      0.28382128       0.99999902    2.2395666e-08
      0.28613525       0.99999901    2.3099303e-08
      0.28846808       0.99999899    2.3818212e-08
      0.29081993       0.99999897    2.4567856e-08
      0.29319096       0.99999896    2.5333454e-08
      0.29558132       0.99999894    2.6132373e-08
      0.29799117       0.99999892    2.6947540e-08
      0.30042066       0.99999891    2.7793053e-08
      0.30286996       0.99999889    2.8662100e-08
      0.30533923       0.99999887    2.9561846e-08
      0.30782863       0.99999885    3.0488940e-08
      0.31033833       0.99999883    3.1437608e-08
      0.31286848       0.99999881    3.2421205e-08
      0.31541927       0.99999879    3.3434950e-08
      0.31799085       0.99999877    3.4476593e-08
      0.32058340       0.99999875    3.5553501e-08
      0.32319709       0.99999873    3.6660563e-08
      0.32583208       0.99999871    3.7800553e-08
      0.32848856       0.99999869    3.8975050e-08
      0.33116670       0.99999867    4.0179842e-08
      0.33386667       0.99999865    4.1425816e-08
      0.33658865       0.99999863    4.2709336e-08
      0.33933282       0.99999861    4.4028991e-08
      0.34209937       0.99999858    4.5389761e-08
      0.34488847       0.99999856    4.6785713e-08
      0.34770032       0.99999854    4.8227150e-08
      0.35053508       0.99999851    4.9714124e-08
      0.35339296       0.99999849    5.1247592e-08
      0.35627414       0.99999846    5.2825273e-08
      0.35917881       0.99999844    5.4449240e-08
      0.36210716       0.99999841    5.6129136e-08
      0.36505938       0.99999839    5.7855769e-08
      0.36803568       0.99999836    5.9638329e-08
      0.37103624       0.99999833    6.1471074e-08
      0.37406126       0.99999831    6.3367968e-08
      0.37711095       0.99999828    6.5322081e-08
      0.38018549       0.99999825    6.7335987e-08
      0.38328511       0.99999822    6.9417661e-08
      0.38641000       0.99999819    7.1567061e-08
      0.38956036       0.99999817    7.3775906e-08
      0.39273641       0.99999814    7.6054860e-08
      0.39593835       0.99999811    7.8394731e-08
      0.39916640       0.99999808    8.0806247e-08
      0.40242076       0.99999804    8.3281911e-08
      0.40570166       0.99999801    8.5847834e-08
      0.40900931       0.99999798    8.8482820e-08
      0.41234392       0.99999795    9.1810524e-08
      0.41570572       0.99999792    9.5158156e-08
      0.41909493       0.99999788    9.8356449e-08
      0.42251177       0.99999785    1.0162065e-07
      0.42595647       0.99999781    1.0495185e-07
      0.42942925       0.99999778    1.0835115e-07
      0.43293034       0.99999774    1.1182164e-07
      0.43645998       0.99999771    1.1536050e-07
      0.44001840       0.99999767    1.1897083e-07
      0.44360583       0.99999763    1.2265589e-07
      0.44722250       0.99999760    1.2641481e-07
      0.45086866       0.99999756    1.3024878e-07
      0.45454455       0.99999752    1.3416121e-07
      0.45825041       0.99999748    1.3815118e-07
      0.46198648       0.99999744    1.4222221e-07
      0.46575301       0.99999740    1.4637333e-07
      0.46955025       0.99999736    1.5060817e-07
      0.47337845       0.99999732    1.5492813e-07
      0.47723786       0.99999727    1.5933219e-07
      0.48112873       0.99999723    1.6382415e-07
      0.48505133       0.99999719    1.6840544e-07
      0.48900590       0.99999714    1.7360407e-07
      0.49299272       0.99999710    1.7915457e-07
      0.49701204       0.99999706    1.8481588e-07
      0.50106413       0.99999701    1.9059426e-07
      0.50514926       0.99999697    1.9648711e-07
      0.50926770       0.99999692    2.0250087e-07
      0.51341971       0.99999687    2.0863520e-07
      0.51760557       0.99999682    2.1489448e-07
      0.52182555       0.99999678    2.2127833e-07
      0.52607995       0.99999673    2.2778877e-07
      0.53036903       0.99999668    2.3443034e-07
      0.53469307       0.99999663    2.4120523e-07
      0.53905238       0.99999657    2.4811563e-07
      0.54344722       0.99999652    2.5516114e-07
      0.54787789       0.99999647    2.6294241e-07
      0.55234469       0.99999642    2.7098274e-07
      0.55684790       0.99999637    2.7918536e-07
      0.56138783       0.99999632    2.8755293e-07
      0.56596477       0.99999627    2.9608815e-07
      0.57057902       0.99999622    3.0479375e-07
      0.57523090       0.99999617    3.1367441e-07
      0.57992070       0.99999611    3.2273108e-07
      0.58464874       0.99999607    3.3240599e-07
      0.58941532       0.99999602    3.4229857e-07
      0.59422077       0.99999598    3.5238904e-07
      0.59906539       0.99999593    3.6268062e-07
      0.60394951       0.99999590    3.7343888e-07
      0.60887346       0.99999587    3.8441731e-07
      0.61383754       0.99999593    3.9578587e-07
      0.61884210       0.99999611    4.0738285e-07
      0.62388746       0.99999619    6.2310628e-08
      0.62897395       0.99999564    6.4250734e-08
      0.63410192       0.99999553    6.6264891e-08
      0.63927169       0.99999542    6.8324172e-08
      0.64448361       0.99999532    7.0465721e-08
      0.64973802       0.99999522    7.2659176e-08
      0.65503527       0.99999513    7.4959496e-08
      0.66037571       0.99999503    7.7306775e-08
      0.66575969       0.99999494    7.9701790e-08
      0.67118757       0.99999484    8.2182028e-08
      0.67665969       0.99999475    8.4896679e-08
      0.68217644       0.99999466    8.7667568e-08
      0.68773815       0.99999456    9.0494655e-08
      0.69334522       0.99999447    9.3379840e-08
      0.69899799       0.99999437    9.6323075e-08
      0.70469686       0.99999427    9.9326319e-08
      0.71044218       0.99999417    1.0239056e-07
      0.71623435       0.99999406    1.0551681e-07
      0.72207374       0.99999396    1.0870499e-07
      0.72796073       0.99999385    1.1195829e-07
      0.73389573       0.99999374    1.1527669e-07
      0.73987911       0.99999363    1.1929695e-07
      0.74591127       0.99999352    1.2481493e-07
      0.75199261       0.99999341    1.3044857e-07
      0.75812354       0.99999330    1.3621084e-07
      0.76430445       0.99999319    1.4209270e-07
      0.77053575       0.99999307    1.4810752e-07
      0.77681785       0.99999296    1.5424595e-07
      0.78315117       0.99999284    1.6050984e-07
      0.78953613       0.99999272    1.6691322e-07
      0.79597314       0.99999259    1.7345858e-07
      0.80246263       0.99999247    1.8012335e-07
      0.80900503       0.99999234    1.8694712e-07
      0.81560077       0.99999221    1.9390718e-07
      0.82225028       0.99999208    2.0100554e-07
      0.82895401       0.99999195    2.0827097e-07
      0.83571239       0.99999181    2.1566602e-07
      0.84252588       0.99999167    2.2323356e-07
      0.84939491       0.99999153    2.3094894e-07
      0.85631994       0.99999139    2.3881428e-07
      0.86330144       0.99999124    2.4686074e-07
      0.87033985       0.99999110    2.5506241e-07
      0.87743565       0.99999095    2.6343649e-07
      0.88458929       0.99999079    2.7197068e-07
      0.89180126       0.99999064    2.8068273e-07
      0.89907203       0.99999048    2.8959141e-07
      0.90640208       0.99999032    2.9865256e-07
      0.91379189       0.99999016    3.0791653e-07
      0.92124195       0.99998999    3.1735421e-07
      0.92875274       0.99998982    3.2700158e-07
      0.93632477       0.99998965    3.3682856e-07
      0.94395854       0.99998948    3.4685497e-07
      0.95165454       0.99998930    3.5708413e-07
      0.95941329       0.99998912    3.6751940e-07
      0.96723529       0.99998894    3.7816422e-07
      0.97512107       0.99998875    3.8900354e-07
      0.98307114       0.99998856    4.0007759e-07
      0.99108602       0.99998837    4.1137173e-07
      0.99916625       0.99998817    4.2288956e-07
       1.0073124       0.99998798    4.3461500e-07
       1.0155249       0.99998777    4.4659093e-07
       1.0238044       0.99998757    4.5880169e-07
       1.0321513       0.99998736    4.7125108e-07
       1.0405664       0.99998715    4.8394296e-07
       1.0490500       0.99998693    4.9688125e-07
       1.0576028       0.99998671    5.1006991e-07
       1.0662253       0.99998649    5.2351296e-07
       1.0749182       0.99998626    5.3721447e-07
       1.0836819       0.99998603    5.5120143e-07
       1.0925170       0.99998580    5.6545590e-07
       1.1014242       0.99998556    5.7995850e-07
       1.1104040       0.99998532    5.9478440e-07
       1.1194570       0.99998507    6.0986710e-07
       1.1285839       0.99998482    6.2523463e-07
       1.1377851       0.99998457    6.4091668e-07
       1.1470613       0.99998431    6.5689339e-07
       1.1564132       0.99998405    6.7316937e-07
       1.1658413       0.99998378    6.8977574e-07
       1.1753463       0.99998351    7.0669164e-07
       1.1849288       0.99998323    7.2392185e-07
       1.1945894       0.99998295    7.4149904e-07
       1.2043288       0.99998267    7.5937300e-07
       1.2141476       0.99998238    7.7763347e-07
       1.2240464       0.99998208    7.9620079e-07
       1.2340259       0.99998178    8.1624430e-07
       1.2440868       0.99998148    8.4995062e-07
       1.2542298       0.99998117    8.8443847e-07
       1.2644554       0.99998086    9.1961763e-07
       1.2747644       0.99998054    9.5555146e-07
       1.2851574       0.99998022    9.9225261e-07
       1.2956351       0.99997989    1.0297339e-06
       1.3061983       0.99997955    1.0680084e-06
       1.3168476       0.99997921    1.1070322e-06
       1.3275838       0.99997886    1.1469317e-06
       1.3384074       0.99997851    1.1876055e-06
       1.3493193       0.99997816    1.2291841e-06
       1.3603202       0.99997779    1.2715626e-06
       1.3714108       0.99997742    1.3148757e-06
       1.3825918       0.99997705    1.3590777e-06
       1.3938639       0.99997666    1.4041194e-06
       1.4052279       0.99997628    1.4501418e-06
       1.4166846       0.99997588    1.4970970e-06
       1.4282347       0.99997548    1.5450000e-06
       1.4398790       0.99997507    1.5938658e-06
       1.4516182       0.99997466    1.6437791e-06
       1.4634531       0.99997424    1.6946181e-06
       1.4753845       0.99997381    1.7465381e-06
       1.4874131       0.99997337    1.7995586e-06
       1.4995399       0.99997293    1.8535515e-06
       1.5117655       0.99997248    1.9086798e-06
       1.5240907       0.99997203    1.9648874e-06
       1.5365165       0.99997156    2.0221912e-06
       1.5490436       0.99997109    2.0806870e-06
       1.5616728       0.99997061    2.1403959e-06
       1.5744049       0.99997012    2.2011764e-06
       1.5872409       0.99996962    2.2632078e-06
       1.6001815       0.99996912    2.3265121e-06
       1.6132277       0.99996861    2.3910261e-06
       1.6263801       0.99996809    2.4567683e-06
       1.6396399       0.99996756    2.5239338e-06
       1.6530077       0.99996702    2.5922810e-06
       1.6664845       0.99996647    2.6620072e-06
       1.6800712       0.99996592    2.7331361e-06
       1.6937687       0.99996535    2.8055978e-06
       1.7075778       0.99996478    2.8795079e-06
       1.7214995       0.99996419    2.9548914e-06
       1.7355347       0.99996360    3.0316746e-06
       1.7496844       0.99996299    3.1099787e-06
       1.7639494       0.99996238    3.1898297e-06
       1.7783307       0.99996176    3.2711501e-06
       1.7928292       0.99996112    3.3540670e-06
       1.8074460       0.99996048    3.4386074e-06
       1.8221819       0.99995982    3.5247988e-06
       1.8370380       0.99995916    3.6125581e-06
       1.8520152       0.99995849    3.7243043e-06
       1.8671145       0.99995781    3.8489828e-06
       1.8823369       0.99995711    3.9762357e-06
       1.8976834       0.99995641    4.1060316e-06
       1.9131550       0.99995570    4.2385604e-06
       1.9287528       0.99995497    4.3737163e-06
       1.9444777       0.99995423    4.5116955e-06
       1.9603309       0.99995348    4.6524674e-06
       1.9763133       0.99995272    4.7959971e-06
       1.9924260       0.99995194    4.9424900e-06
       2.0086700       0.99995115    5.0919966e-06
       2.0250465       0.99995035    5.2443995e-06
       2.0415565       0.99994954    5.3999138e-06
       2.0582011       0.99994871    5.5585921e-06
       2.0749815       0.99994787    5.7203994e-06
       2.0918986       0.99994701    5.8853853e-06
       2.1089536       0.99994615    6.0536917e-06
       2.1261477       0.99994526    6.2253741e-06
       2.1434820       0.99994436    6.4003944e-06
       2.1609576       0.99994345    6.5789010e-06
       2.1785757       0.99994254    6.8004972e-06
       2.1963374       0.99994162    7.0299418e-06
       2.2142439       0.99994068    7.2642764e-06
       2.2322964       0.99993973    7.5034237e-06
       2.2504961       0.99993876    7.7474626e-06
       2.2688442       0.99993778    7.9964729e-06
       2.2873419       0.99993678    8.2505354e-06
       2.3059904       0.99993577    8.5097321e-06
       2.3247909       0.99993474    8.7743223e-06
       2.3437447       0.99993369    9.0440401e-06
       2.3628530       0.99993262    9.3195088e-06
       2.3821171       0.99993154    9.6002766e-06
       2.4015383       0.99993044    9.8867985e-06
       2.4211178       0.99992932    1.0178981e-05
       2.4408569       0.99992818    1.0477108e-05
       2.4607570       0.99992703    1.0781083e-05
       2.4808193       0.99992585    1.1091198e-05
       2.5010452       0.99992466    1.1407353e-05
       2.5214360       0.99992345    1.1729850e-05
       2.5419930       0.99992222    1.2058794e-05
       2.5627176       0.99992097    1.2394292e-05
       2.5836112       0.99991969    1.2736237e-05
       2.6046751       0.99991840    1.3084950e-05
       2.6259108       0.99991710    1.3455428e-05
       2.6473196       0.99991582    1.3889848e-05
       2.6689029       0.99991452    1.4333337e-05
       2.6906622       0.99991321    1.4785824e-05
       2.7125989       0.99991187    1.5247456e-05
       2.7347145       0.99991051    1.5718381e-05
       2.7570104       0.99990912    1.6198749e-05
       2.7794880       0.99990772    1.6688952e-05
       2.8021489       0.99990629    1.7189156e-05
       2.8249946       0.99990484    1.7699034e-05
       2.8480265       0.99990337    1.8219486e-05
       2.8712461       0.99990187    1.8749931e-05
