;  Optical constants for Ni.
;  Density = 8.9000000 g/cm3
;   
;  Computed from the atomic scattering factors from 
;  CXRO <http://www-cxro.lbl.gov> and
;  LLNL <http://www-phys.llnl.gov/V_Div/scattering/asf.html>.
;   
;  Lambda (A) n k
;-----------------
      0.12398000       0.99999982    2.3251310e-10
      0.12499080       0.99999982    2.4033037e-10
      0.12600983       0.99999982    2.4841989e-10
      0.12703718       0.99999982    2.5678525e-10
      0.12807290       0.99999981    2.6540631e-10
      0.12911707       0.99999981    2.7433725e-10
      0.13016975       0.99999981    2.8353647e-10
      0.13123101       0.99999980    2.9305862e-10
      0.13230092       0.99999980    3.0290114e-10
      0.13337956       0.99999980    3.1306365e-10
      0.13446699       0.99999979    3.2364145e-10
      0.13556329       0.99999979    3.3445479e-10
      0.13666852       0.99999979    3.4575844e-10
      0.13778277       0.99999978    3.5730079e-10
      0.13890610       0.99999978    3.6931997e-10
      0.14003858       0.99999978    3.8172700e-10
      0.14118030       0.99999977    3.9454030e-10
      0.14233133       0.99999977    4.0783524e-10
      0.14349175       0.99999976    4.2145554e-10
      0.14466162       0.99999976    4.3568218e-10
      0.14584103       0.99999976    4.5020218e-10
      0.14703006       0.99999975    4.6535599e-10
      0.14822878       0.99999975    4.8098031e-10
      0.14943728       0.99999974    4.9707954e-10
      0.15065563       0.99999974    5.1376125e-10
      0.15188391       0.99999974    5.3102742e-10
      0.15312220       0.99999973    5.4885450e-10
      0.15437059       0.99999973    5.6729581e-10
      0.15562916       0.99999972    5.8631487e-10
      0.15689799       0.99999972    6.0596314e-10
      0.15817716       0.99999971    6.2626771e-10
      0.15946677       0.99999971    6.4725365e-10
      0.16076688       0.99999970    6.6891364e-10
      0.16207760       0.99999970    6.9144158e-10
      0.16339900       0.99999969    7.1451593e-10
      0.16473118       0.99999969    7.3847293e-10
      0.16607422       0.99999968    7.6325058e-10
      0.16742821       0.99999968    7.8880507e-10
      0.16879323       0.99999967    8.1521661e-10
      0.17016939       0.99999967    8.4254034e-10
      0.17155676       0.99999966    8.7083230e-10
      0.17295545       0.99999966    9.0005940e-10
      0.17436554       0.99999965    9.3015277e-10
      0.17578712       0.99999965    9.6142211e-10
      0.17722030       0.99999964    9.9350665e-10
      0.17866516       0.99999963    1.0268670e-09
      0.18012180       0.99999963    1.0611492e-09
      0.18159031       0.99999962    1.0966816e-09
      0.18307080       0.99999962    1.1332825e-09
      0.18456336       0.99999961    1.1711769e-09
      0.18606809       0.99999960    1.2104089e-09
      0.18758508       0.99999960    1.2508893e-09
      0.18911444       0.99999959    1.2927775e-09
      0.19065628       0.99999958    1.3358525e-09
      0.19221068       0.99999958    1.3807147e-09
      0.19377775       0.99999957    1.4265914e-09
      0.19535760       0.99999956    1.4745090e-09
      0.19695034       0.99999955    1.5235145e-09
      0.19855605       0.99999955    1.5744657e-09
      0.20017486       0.99999954    1.6271802e-09
      0.20180687       0.99999953    1.6813921e-09
      0.20345218       0.99999952    1.7376437e-09
      0.20511091       0.99999952    1.7958450e-09
      0.20678315       0.99999951    1.8555830e-09
      0.20846904       0.99999950    1.9172335e-09
      0.21016867       0.99999949    1.9811874e-09
      0.21188215       0.99999948    2.0464593e-09
      0.21360961       0.99999948    2.1143499e-09
      0.21535114       0.99999947    2.1843633e-09
      0.21710688       0.99999946    2.2569132e-09
      0.21887693       0.99999945    2.3315736e-09
      0.22066141       0.99999944    2.4087858e-09
      0.22246045       0.99999943    2.4887374e-09
      0.22427414       0.99999942    2.5711301e-09
      0.22610263       0.99999941    2.6557834e-09
      0.22794602       0.99999940    2.7434295e-09
      0.22980444       0.99999939    2.8339363e-09
      0.23167802       0.99999938    2.9274719e-09
      0.23356687       0.99999937    3.0241942e-09
      0.23547111       0.99999936    3.1241091e-09
      0.23739089       0.99999935    3.2272927e-09
      0.23932631       0.99999934    3.3338410e-09
      0.24127752       0.99999933    3.4438460e-09
      0.24324463       0.99999932    3.5574170e-09
      0.24522778       0.99999931    3.6749121e-09
      0.24722710       0.99999930    3.7963774e-09
      0.24924272       0.99999929    3.9214530e-09
      0.25127477       0.99999927    4.0503723e-09
      0.25332339       0.99999926    4.1834364e-09
      0.25538871       0.99999925    4.3209894e-09
      0.25747087       0.99999924    4.4632834e-09
      0.25957000       0.99999922    4.6101352e-09
      0.26168625       0.99999921    4.7616612e-09
      0.26381975       0.99999920    4.9179679e-09
      0.26597065       0.99999919    5.0799846e-09
      0.26813908       0.99999917    5.2471885e-09
      0.27032520       0.99999916    5.4198847e-09
      0.27252913       0.99999915    5.5982873e-09
      0.27475103       0.99999913    5.7823584e-09
      0.27699105       0.99999912    5.9724400e-09
      0.27924933       0.99999910    6.1677509e-09
      0.28152603       0.99999909    6.3704722e-09
      0.28382128       0.99999907    6.5791217e-09
      0.28613525       0.99999906    6.7956544e-09
      0.28846808       0.99999904    7.0169374e-09
      0.29081993       0.99999903    7.2478629e-09
      0.29319096       0.99999901    7.4837727e-09
      0.29558132       0.99999899    7.7306378e-09
      0.29799117       0.99999898    7.9825698e-09
      0.30042066       0.99999896    8.2444108e-09
      0.30286996       0.99999894    8.5138075e-09
      0.30533923       0.99999893    8.7932183e-09
      0.30782863       0.99999891    9.0814803e-09
      0.31033833       0.99999889    9.3765243e-09
      0.31286848       0.99999887    9.6826049e-09
      0.31541927       0.99999885    9.9984687e-09
      0.31799085       0.99999883    1.0323369e-08
      0.32058340       0.99999882    1.0660943e-08
      0.32319709       0.99999880    1.1008371e-08
      0.32583208       0.99999878    1.1366616e-08
      0.32848856       0.99999876    1.1736941e-08
      0.33116670       0.99999874    1.2117294e-08
      0.33386667       0.99999871    1.2511398e-08
      0.33658865       0.99999869    1.2917932e-08
      0.33933282       0.99999867    1.3336379e-08
      0.34209937       0.99999865    1.3770657e-08
      0.34488847       0.99999863    1.4216862e-08
      0.34770032       0.99999861    1.4678452e-08
      0.35053508       0.99999858    1.5155455e-08
      0.35339296       0.99999856    1.5648085e-08
      0.35627414       0.99999854    1.6155373e-08
      0.35917881       0.99999851    1.6677969e-08
      0.36210716       0.99999849    1.7219643e-08
      0.36505938       0.99999846    1.7777090e-08
      0.36803568       0.99999844    1.8353639e-08
      0.37103624       0.99999841    1.8947078e-08
      0.37406126       0.99999838    1.9562662e-08
      0.37711095       0.99999836    2.0195356e-08
      0.38018549       0.99999833    2.0845644e-08
      0.38328511       0.99999830    2.1519023e-08
      0.38641000       0.99999828    2.2215355e-08
      0.38956036       0.99999825    2.2931561e-08
      0.39273641       0.99999822    2.3671699e-08
      0.39593835       0.99999819    2.4435762e-08
      0.39916640       0.99999816    2.5225717e-08
      0.40242076       0.99999813    2.6037523e-08
      0.40570166       0.99999810    2.6880817e-08
      0.40900931       0.99999807    2.7684948e-08
      0.41234392       0.99999803    2.8400971e-08
      0.41570572       0.99999800    2.9271679e-08
      0.41909493       0.99999797    3.0214086e-08
      0.42251177       0.99999794    3.1191959e-08
      0.42595647       0.99999790    3.2195303e-08
      0.42942925       0.99999787    3.3236891e-08
      0.43293034       0.99999783    3.4304998e-08
      0.43645998       0.99999780    3.5414321e-08
      0.44001840       0.99999776    3.6551297e-08
      0.44360583       0.99999772    3.7732840e-08
      0.44722250       0.99999769    3.8943204e-08
      0.45086866       0.99999765    4.0201520e-08
      0.45454455       0.99999761    4.1489860e-08
      0.45825041       0.99999757    4.2829805e-08
      0.46198648       0.99999753    4.4200998e-08
      0.46575301       0.99999749    4.5627905e-08
      0.46955025       0.99999745    4.7087257e-08
      0.47337845       0.99999741    4.8606822e-08
      0.47723786       0.99999736    5.0160188e-08
      0.48112873       0.99999732    5.1777998e-08
      0.48505133       0.99999727    5.3430887e-08
      0.48900590       0.99999723    5.5153397e-08
      0.49299272       0.99999718    5.6912308e-08
      0.49701204       0.99999714    5.8746024e-08
      0.50106413       0.99999709    6.0618100e-08
      0.50514926       0.99999704    6.2569622e-08
      0.50926770       0.99999699    6.4562522e-08
      0.51341971       0.99999694    6.6639056e-08
      0.51760557       0.99999689    6.8760753e-08
      0.52182555       0.99999684    7.0969901e-08
      0.52607995       0.99999679    7.3228262e-08
      0.53036903       0.99999674    7.5578240e-08
      0.53469307       0.99999669    7.7981829e-08
      0.53905238       0.99999663    8.0481805e-08
      0.54344722       0.99999658    8.3040091e-08
      0.54787789       0.99999652    8.5699278e-08
      0.55234469       0.99999646    8.8421839e-08
      0.55684790       0.99999640    9.1250280e-08
      0.56138783       0.99999634    9.4147572e-08
      0.56596477       0.99999628    9.7155806e-08
      0.57057902       0.99999622    1.0023879e-07
      0.57523090       0.99999616    1.0343759e-07
      0.57992070       0.99999610    1.0671750e-07
      0.58464874       0.99999603    1.1011940e-07
      0.58941532       0.99999597    1.1360930e-07
      0.59422077       0.99999590    1.1722660e-07
      0.59906539       0.99999584    1.2093941e-07
      0.60394951       0.99999577    1.2478584e-07
      0.60887346       0.99999570    1.2873548e-07
      0.61383754       0.99999563    1.3282449e-07
      0.61884210       0.99999555    1.3702549e-07
      0.62388746       0.99999548    1.4137274e-07
      0.62897395       0.99999541    1.4584096e-07
      0.63410192       0.99999533    1.5046148e-07
      0.63927169       0.99999526    1.5521329e-07
      0.64448361       0.99999518    1.6012511e-07
      0.64973802       0.99999510    1.6517868e-07
      0.65503527       0.99999502    1.7039904e-07
      0.66037571       0.99999494    1.7577262e-07
      0.66575969       0.99999485    1.8132145e-07
      0.67118757       0.99999477    1.8703484e-07
      0.67665969       0.99999468    1.9292968e-07
      0.68217644       0.99999460    1.9900297e-07
      0.68773815       0.99999451    2.0526729e-07
      0.69334522       0.99999442    2.1172450e-07
      0.69899799       0.99999433    2.1838140e-07
      0.70469686       0.99999423    2.2524480e-07
      0.71044218       0.99999414    2.3231504e-07
      0.71623435       0.99999404    2.3960939e-07
      0.72207374       0.99999395    2.4712107e-07
      0.72796073       0.99999385    2.5487373e-07
      0.73389573       0.99999375    2.6285239e-07
      0.73987911       0.99999365    2.7109068e-07
      0.74591127       0.99999354    2.7956528e-07
      0.75199261       0.99999344    2.8831857e-07
      0.75812354       0.99999333    2.9731769e-07
      0.76430445       0.99999322    3.0661647e-07
      0.77053575       0.99999311    3.1617194e-07
      0.77681785       0.99999300    3.2605062e-07
      0.78315117       0.99999288    3.3619740e-07
      0.78953613       0.99999277    3.4669059e-07
      0.79597314       0.99999265    3.5746189e-07
      0.80246263       0.99999253    3.6860712e-07
      0.80900503       0.99999241    3.8004259e-07
      0.81560077       0.99999229    3.9187683e-07
      0.82225028       0.99999216    4.0401248e-07
      0.82895401       0.99999203    4.1657917e-07
      0.83571239       0.99999191    4.2946045e-07
      0.84252588       0.99999177    4.4280065e-07
      0.84939491       0.99999164    4.5646667e-07
      0.85631994       0.99999151    4.7063007e-07
      0.86330144       0.99999137    4.8513428e-07
      0.87033985       0.99999123    5.0016484e-07
      0.87743565       0.99999109    5.1554821e-07
      0.88458929       0.99999094    5.3150200e-07
      0.89180126       0.99999080    5.4782372e-07
      0.89907203       0.99999065    5.6475104e-07
      0.90640208       0.99999050    5.8205949e-07
      0.91379189       0.99999035    6.0001989e-07
      0.92124195       0.99999019    6.1837729e-07
      0.92875274       0.99999004    6.3742975e-07
      0.93632477       0.99998988    6.5689375e-07
      0.94395854       0.99998971    6.7710474e-07
      0.95165454       0.99998955    6.9774359e-07
      0.95941329       0.99998938    7.1916923e-07
      0.96723529       0.99998921    7.4103806e-07
      0.97512107       0.99998904    7.6376296e-07
      0.98307114       0.99998887    7.8695605e-07
      0.99108602       0.99998869    8.1103611e-07
      0.99916625       0.99998851    8.3562210e-07
       1.0073124       0.99998833    8.6114289e-07
       1.0155249       0.99998815    8.8720995e-07
       1.0238044       0.99998796    9.1423548e-07
       1.0321513       0.99998777    9.4185175e-07
       1.0405664       0.99998758    9.7048410e-07
       1.0490500       0.99998738    9.9975322e-07
       1.0576028       0.99998719    1.0300731e-06
       1.0662253       0.99998699    1.0610790e-06
       1.0749182       0.99998678    1.0931826e-06
       1.0836819       0.99998658    1.1260260e-06
       1.0925170       0.99998637    1.1600126e-06
       1.1014242       0.99998616    1.1947968e-06
       1.1104040       0.99998595    1.2307697e-06
       1.1194570       0.99998573    1.2675984e-06
       1.1285839       0.99998551    1.3056603e-06
       1.1377851       0.99998529    1.3446408e-06
       1.1470613       0.99998507    1.3849070e-06
       1.1564132       0.99998484    1.4261617e-06
       1.1658413       0.99998461    1.4687601e-06
       1.1753463       0.99998438    1.5124157e-06
       1.1849288       0.99998414    1.5574595e-06
       1.1945894       0.99998391    1.6036382e-06
       1.2043288       0.99998367    1.6512665e-06
       1.2141476       0.99998343    1.7001073e-06
       1.2240464       0.99998318    1.7504482e-06
       1.2340259       0.99998294    1.8020906e-06
       1.2440868       0.99998269    1.8552979e-06
       1.2542298       0.99998244    1.9098712e-06
       1.2644554       0.99998219    1.9660327e-06
       1.2747644       0.99998194    2.0236982e-06
       1.2851574       0.99998169    2.0830834e-06
       1.2956351       0.99998144    2.1440351e-06
       1.3061983       0.99998118    2.2067156e-06
       1.3168476       0.99998093    2.2710859e-06
       1.3275838       0.99998068    2.3372761e-06
       1.3384074       0.99998043    2.4052652e-06
       1.3493193       0.99998018    2.4751420e-06
       1.3603202       0.99997994    2.5469017e-06
       1.3714108       0.99997970    2.6205876e-06
       1.3825918       0.99997947    2.6962871e-06
       1.3938639       0.99997924    2.7739940e-06
       1.4052279       0.99997904    2.8538541e-06
       1.4166846       0.99997884    2.9358077e-06
       1.4282347       0.99997869    3.0200357e-06
       1.4398790       0.99997856    3.1064288e-06
       1.4516182       0.99997853    3.1952306e-06
       1.4634531       0.99997858    3.2862680e-06
       1.4753845       0.99998092    3.3800074e-06
       1.4874131       0.99998473    3.4761592e-06
       1.4995399       0.99997878    4.5873392e-07
       1.5117655       0.99997747    4.7341401e-07
       1.5240907       0.99997659    4.8860742e-07
       1.5365165       0.99997592    5.0421668e-07
       1.5490436       0.99997531    5.2036942e-07
       1.5616728       0.99997473    5.3695276e-07
       1.5744049       0.99997418    5.5411387e-07
       1.5872409       0.99997363    5.7172020e-07
       1.6001815       0.99997309    5.8995289e-07
       1.6132277       0.99997255    6.0865161e-07
       1.6263801       0.99997201    6.2802485e-07
       1.6396399       0.99997147    6.4788375e-07
       1.6530077       0.99997092    6.6847031e-07
       1.6664845       0.99997038    6.8956293e-07
       1.6800712       0.99996983    7.1142672e-07
       1.6937687       0.99996927    7.3381415e-07
       1.7075778       0.99996871    7.5704610e-07
       1.7214995       0.99996814    7.8082633e-07
       1.7355347       0.99996756    8.0550510e-07
       1.7496844       0.99996698    8.3075285e-07
       1.7639494       0.99996639    8.5696914e-07
       1.7783307       0.99996579    8.8377866e-07
       1.7928292       0.99996519    9.1161867e-07
       1.8074460       0.99996457    9.4007269e-07
       1.8221819       0.99996395    9.6965017e-07
       1.8370380       0.99996332    9.9986813e-07
       1.8520152       0.99996268    1.0312787e-06
       1.8671145       0.99996202    1.0633530e-06
       1.8823369       0.99996136    1.0967154e-06
       1.8976834       0.99996069    1.1307694e-06
       1.9131550       0.99996001    1.1662057e-06
       1.9287528       0.99995932    1.2023804e-06
       1.9444777       0.99995862    1.2399880e-06
       1.9603309       0.99995790    1.2783973e-06
       1.9763133       0.99995718    1.3183171e-06
       1.9924260       0.99995644    1.3591093e-06
       2.0086700       0.99995569    1.4015040e-06
       2.0250465       0.99995493    1.4448393e-06
       2.0415565       0.99995416    1.4897991e-06
       2.0582011       0.99995338    1.5357891e-06
       2.0749815       0.99995258    1.5835574e-06
       2.0918986       0.99995177    1.6324320e-06
       2.1089536       0.99995095    1.6831084e-06
       2.1261477       0.99995011    1.7349830e-06
       2.1434820       0.99994926    1.7887443e-06
       2.1609576       0.99994840    1.8438089e-06
       2.1785757       0.99994752    1.9008745e-06
       2.1963374       0.99994663    1.9593647e-06
       2.2142439       0.99994572    2.0200052e-06
       2.2322964       0.99994480    2.0821408e-06
       2.2504961       0.99994386    2.1463759e-06
       2.2688442       0.99994291    2.2122824e-06
       2.2873419       0.99994194    2.2805500e-06
       2.3059904       0.99994096    2.3505884e-06
       2.3247909       0.99993996    2.4230024e-06
       2.3437447       0.99993894    2.4973475e-06
       2.3628530       0.99993791    2.5742185e-06
       2.3821171       0.99993686    2.6531630e-06
       2.4015383       0.99993579    2.7347189e-06
       2.4211178       0.99993471    2.8185045e-06
       2.4408569       0.99993361    2.9050097e-06
       2.4607570       0.99993249    2.9939644e-06
       2.4808193       0.99993135    3.0858439e-06
       2.5010452       0.99993019    3.1803296e-06
       2.5214360       0.99992901    3.2778061e-06
       2.5419930       0.99992781    3.3780805e-06
       2.5627176       0.99992659    3.4814559e-06
       2.5836112       0.99992536    3.5878873e-06
       2.6046751       0.99992410    3.6976143e-06
       2.6259108       0.99992282    3.8106259e-06
       2.6473196       0.99992152    3.9270609e-06
       2.6689029       0.99992020    4.0470414e-06
       2.6906622       0.99991886    4.1706060e-06
       2.7125989       0.99991749    4.2979439e-06
       2.7347145       0.99991610    4.4289881e-06
       2.7570104       0.99991469    4.5641881e-06
       2.7794880       0.99991326    4.7033231e-06
       2.8021489       0.99991180    4.8468180e-06
       2.8249946       0.99991031    4.9943386e-06
       2.8480265       0.99990881    5.1466662e-06
