;  Optical constants for crystalline Si
;  
;  Concatenation of:
;
;  Si_llnl_cxro + Si_palik
;
;    Lambda (A)            n            k
;-----------------------------------------
      0.12398000       0.99999995    5.6886657e-12
      0.12499080       0.99999995    5.8869953e-12
      0.12600983       0.99999995    6.0924737e-12
      0.12703718       0.99999995    6.3052263e-12
      0.12807290       0.99999995    6.5246936e-12
      0.12911707       0.99999995    6.7523669e-12
      0.13016975       0.99999995    6.9870917e-12
      0.13123101       0.99999995    7.2303850e-12
      0.13230092       0.99999995    7.4821575e-12
      0.13337956       0.99999994    7.7423847e-12
      0.13446699       0.99999994    8.0137516e-12
      0.13556329       0.99999994    8.2912375e-12
      0.13666852       0.99999994    8.5819229e-12
      0.13778277       0.99999994    8.8788071e-12
      0.13890610       0.99999994    9.1887500e-12
      0.14003858       0.99999994    9.5090412e-12
      0.14118030       0.99999994    9.8401942e-12
      0.14233133       0.99999994    1.0184318e-11
      0.14349175       0.99999994    1.0537031e-11
      0.14466162       0.99999993    1.0906233e-11
      0.14584103       0.99999993    1.1283103e-11
      0.14703006       0.99999993    1.1677256e-11
      0.14822878       0.99999993    1.2084036e-11
      0.14943728       0.99999993    1.2503752e-11
      0.15065563       0.99999993    1.2942665e-11
      0.15188391       0.99999993    1.3390683e-11
      0.15312220       0.99999993    1.3859699e-11
      0.15437059       0.99999993    1.4341252e-11
      0.15562916       0.99999992    1.4838519e-11
      0.15689799       0.99999992    1.5354858e-11
      0.15817716       0.99999992    1.5890793e-11
      0.15946677       0.99999992    1.6446371e-11
      0.16076688       0.99999992    1.7013427e-11
      0.16207760       0.99999992    1.7608646e-11
      0.16339900       0.99999992    1.8218617e-11
      0.16473118       0.99999991    1.8852957e-11
      0.16607422       0.99999991    1.9509898e-11
      0.16742821       0.99999991    2.0188197e-11
      0.16879323       0.99999991    2.0890060e-11
      0.17016939       0.99999991    2.1617159e-11
      0.17155676       0.99999991    2.2371068e-11
      0.17295545       0.99999991    2.3150833e-11
      0.17436554       0.99999990    2.3954437e-11
      0.17578712       0.99999990    2.4790931e-11
      0.17722030       0.99999990    2.5649810e-11
      0.17866516       0.99999990    2.6544934e-11
      0.18012180       0.99999990    2.7465482e-11
      0.18159031       0.99999990    2.8421010e-11
      0.18307080       0.99999989    2.9406273e-11
      0.18456336       0.99999989    3.0427835e-11
      0.18606809       0.99999989    3.1486912e-11
      0.18758508       0.99999989    3.2580897e-11
      0.18911444       0.99999989    3.3714507e-11
      0.19065628       0.99999989    3.4881199e-11
      0.19221068       0.99999988    3.6100224e-11
      0.19377775       0.99999988    3.7347320e-11
      0.19535760       0.99999988    3.8652798e-11
      0.19695034       0.99999988    3.9988382e-11
      0.19855605       0.99999988    4.1379639e-11
      0.20017486       0.99999987    4.2820770e-11
      0.20180687       0.99999987    4.4303912e-11
      0.20345218       0.99999987    4.5844954e-11
      0.20511091       0.99999987    4.7441796e-11
      0.20678315       0.99999987    4.9082912e-11
      0.20846904       0.99999986    5.0789029e-11
      0.21016867       0.99999986    5.2561860e-11
      0.21188215       0.99999986    5.4371550e-11
      0.21360961       0.99999986    5.6258302e-11
      0.21535114       0.99999985    5.8210360e-11
      0.21710688       0.99999985    6.0237475e-11
      0.21887693       0.99999985    6.2325475e-11
      0.22066141       0.99999985    6.4487582e-11
      0.22246045       0.99999984    6.6719228e-11
      0.22427414       0.99999984    6.9026255e-11
      0.22610263       0.99999984    7.1551114e-11
      0.22794602       0.99999984    7.4034717e-11
      0.22980444       0.99999983    7.6598101e-11
      0.23167802       0.99999983    7.9248754e-11
      0.23356687       0.99999983    8.1995396e-11
      0.23547111       0.99999983    8.4836391e-11
      0.23739089       0.99999982    8.7774812e-11
      0.23932631       0.99999982    9.0813815e-11
      0.24127752       0.99999982    9.3956287e-11
      0.24324463       0.99999981    9.7205700e-11
      0.24522778       0.99999981    1.0057307e-10
      0.24722710       0.99999981    1.0405934e-10
      0.24924272       0.99999981    1.0765883e-10
      0.25127477       0.99999980    1.1137688e-10
      0.25332339       0.99999980    1.1522002e-10
      0.25538871       0.99999980    1.1919943e-10
      0.25747087       0.99999979    1.2332352e-10
      0.25957000       0.99999979    1.2758602e-10
      0.26168625       0.99999979    1.3199088e-10
      0.26381975       0.99999978    1.3654185e-10
      0.26597065       0.99999978    1.4126843e-10
      0.26813908       0.99999977    1.4615357e-10
      0.27032520       0.99999977    1.5120727e-10
      0.27252913       0.99999977    1.5643653e-10
      0.27475103       0.99999976    1.6184158e-10
      0.27699105       0.99999976    1.6743358e-10
      0.27924933       0.99999976    1.7318564e-10
      0.28152603       0.99999975    1.7917004e-10
      0.28382128       0.99999975    1.8533718e-10
      0.28613525       0.99999974    1.9175178e-10
      0.28846808       0.99999974    1.9831037e-10
      0.29081993       0.99999973    2.0518710e-10
      0.29319096       0.99999973    2.1221234e-10
      0.29558132       0.99999973    2.1953216e-10
      0.29799117       0.99999972    2.2710554e-10
      0.30042066       0.99999972    2.3493780e-10
      0.30286996       0.99999971    2.4302752e-10
      0.30533923       0.99999971    2.5141338e-10
      0.30782863       0.99999970    2.6007694e-10
      0.31033833       0.99999970    2.6903247e-10
      0.31286848       0.99999969    2.7829842e-10
      0.31541927       0.99999969    2.8787667e-10
      0.31799085       0.99999968    2.9774117e-10
      0.32058340       0.99999968    3.0801635e-10
      0.32319709       0.99999967    3.1860536e-10
      0.32583208       0.99999967    3.2954092e-10
      0.32848856       0.99999966    3.4088956e-10
      0.33116670       0.99999966    3.5256249e-10
      0.33386667       0.99999965    3.6468455e-10
      0.33658865       0.99999964    3.7721021e-10
      0.33933282       0.99999964    3.9012077e-10
      0.34209937       0.99999963    4.0355198e-10
      0.34488847       0.99999963    4.1736797e-10
      0.34770032       0.99999962    4.3169030e-10
      0.35053508       0.99999961    4.4651793e-10
      0.35339296       0.99999961    4.6186272e-10
      0.35627414       0.99999960    4.7768865e-10
      0.35917881       0.99999960    4.9401781e-10
      0.36210716       0.99999959    5.1098294e-10
      0.36505938       0.99999958    5.2846545e-10
      0.36803568       0.99999957    5.4658499e-10
      0.37103624       0.99999957    5.6526357e-10
      0.37406126       0.99999956    5.8468202e-10
      0.37711095       0.99999955    6.0468956e-10
      0.38018549       0.99999955    6.2530808e-10
      0.38328511       0.99999954    6.4670607e-10
      0.38641000       0.99999953    6.6888093e-10
      0.38956036       0.99999952    6.9171937e-10
      0.39273641       0.99999952    7.1536787e-10
      0.39593835       0.99999951    7.3982851e-10
      0.39916640       0.99999950    7.6516992e-10
      0.40242076       0.99999949    7.9124284e-10
      0.40570166       0.99999948    8.1840029e-10
      0.40900931       0.99999947    8.4429647e-10
      0.41234392       0.99999947    8.6734561e-10
      0.41570572       0.99999946    8.9536391e-10
      0.41909493       0.99999945    9.2568993e-10
      0.42251177       0.99999944    9.5723489e-10
      0.42595647       0.99999943    9.8963189e-10
      0.42942925       0.99999942    1.0233469e-09
      0.43293034       0.99999941    1.0579496e-09
      0.43645998       0.99999940    1.0939818e-09
      0.44001840       0.99999939    1.1309418e-09
      0.44360583       0.99999938    1.1694546e-09
      0.44722250       0.99999937    1.2089357e-09
      0.45086866       0.99999936    1.2500920e-09
      0.45454455       0.99999935    1.2922577e-09
      0.45825041       0.99999934    1.3362394e-09
      0.46198648       0.99999933    1.3812739e-09
      0.46575301       0.99999932    1.4282767e-09
      0.46955025       0.99999931    1.4763736e-09
      0.47337845       0.99999930    1.5266074e-09
      0.47723786       0.99999928    1.5779821e-09
      0.48112873       0.99999927    1.6316568e-09
      0.48505133       0.99999926    1.6865167e-09
      0.48900590       0.99999925    1.7438701e-09
      0.49299272       0.99999924    1.8024541e-09
      0.49701204       0.99999922    1.8637335e-09
      0.50106413       0.99999921    1.9263128e-09
      0.50514926       0.99999920    1.9917709e-09
      0.50926770       0.99999919    2.0586390e-09
      0.51341971       0.99999917    2.1285394e-09
      0.51760557       0.99999916    2.1999903e-09
      0.52182555       0.99999914    2.2746342e-09
      0.52607995       0.99999913    2.3509788e-09
      0.53036903       0.99999912    2.4306705e-09
      0.53469307       0.99999910    2.5122287e-09
      0.53905238       0.99999909    2.5973285e-09
      0.54344722       0.99999907    2.6844722e-09
      0.54787789       0.99999906    2.7753365e-09
      0.55234469       0.99999904    2.8684371e-09
      0.55684790       0.99999903    2.9654525e-09
      0.56138783       0.99999901    3.0649140e-09
      0.56596477       0.99999899    3.1684925e-09
      0.57057902       0.99999898    3.2747468e-09
      0.57523090       0.99999896    3.3853233e-09
      0.57992070       0.99999894    3.4988211e-09
      0.58464874       0.99999893    3.6168797e-09
      0.58941532       0.99999891    3.7381313e-09
      0.59422077       0.99999889    3.8641680e-09
      0.59906539       0.99999887    3.9936945e-09
      0.60394951       0.99999885    4.1282591e-09
      0.60887346       0.99999883    4.2666210e-09
      0.61383754       0.99999881    4.4102598e-09
      0.61884210       0.99999880    4.5580620e-09
      0.62388746       0.99999878    4.7114522e-09
      0.62897395       0.99999876    4.8693004e-09
      0.63410192       0.99999873    5.0328512e-09
      0.63927169       0.99999871    5.2012936e-09
      0.64448361       0.99999869    5.3757948e-09
      0.64973802       0.99999867    5.5556087e-09
      0.65503527       0.99999865    5.7417577e-09
      0.66037571       0.99999863    5.9336799e-09
      0.66575969       0.99999860    6.1322729e-09
      0.67118757       0.99999858    6.3371225e-09
      0.67665969       0.99999856    6.5489254e-09
      0.68217644       0.99999853    6.7675379e-09
      0.68773815       0.99999851    6.9934740e-09
      0.69334522       0.99999849    7.2268114e-09
      0.69899799       0.99999846    7.4678225e-09
      0.70469686       0.99999844    7.7168261e-09
      0.71044218       0.99999841    7.9738223e-09
      0.71623435       0.99999838    8.2395481e-09
      0.72207374       0.99999836    8.5136988e-09
      0.72796073       0.99999833    8.7972938e-09
      0.73389573       0.99999830    9.0896738e-09
      0.73987911       0.99999828    9.3922780e-09
      0.74591127       0.99999825    9.7040825e-09
      0.75199261       0.99999822    1.0026986e-08
      0.75812354       0.99999819    1.0359524e-08
      0.76430445       0.99999816    1.0704027e-08
      0.77053575       0.99999813    1.1058589e-08
      0.77681785       0.99999810    1.1426166e-08
      0.78315117       0.99999807    1.1804292e-08
      0.78953613       0.99999803    1.2196521e-08
      0.79597314       0.99999800    1.2599752e-08
      0.80246263       0.99999797    1.3018236e-08
      0.80900503       0.99999794    1.3448199e-08
      0.81560077       0.99999790    1.3894634e-08
      0.82225028       0.99999787    1.4353056e-08
      0.82895401       0.99999783    1.4829338e-08
      0.83571239       0.99999780    1.5318137e-08
      0.84252588       0.99999776    1.5826136e-08
      0.84939491       0.99999772    1.6347142e-08
      0.85631994       0.99999769    1.6889166e-08
      0.86330144       0.99999765    1.7444846e-08
      0.87033985       0.99999761    1.8022946e-08
      0.87743565       0.99999757    1.8615209e-08
      0.88458929       0.99999753    1.9231991e-08
      0.89180126       0.99999749    1.9863585e-08
      0.89907203       0.99999745    2.0521328e-08
      0.90640208       0.99999740    2.1194423e-08
      0.91379189       0.99999736    2.1896031e-08
      0.92124195       0.99999732    2.2613681e-08
      0.92875274       0.99999727    2.3361923e-08
      0.93632477       0.99999723    2.4126809e-08
      0.94395854       0.99999718    2.4925062e-08
      0.95165454       0.99999714    2.5740662e-08
      0.95941329       0.99999709    2.6591702e-08
      0.96723529       0.99999704    2.7460724e-08
      0.97512107       0.99999699    2.8368475e-08
      0.98307114       0.99999694    2.9295331e-08
      0.99108602       0.99999689    3.0262843e-08
      0.99916625       0.99999684    3.1251229e-08
       1.0073124       0.99999679    3.2282637e-08
       1.0155249       0.99999673    3.3336866e-08
       1.0238044       0.99999668    3.4435744e-08
       1.0321513       0.99999663    3.5559600e-08
       1.0405664       0.99999657    3.6731064e-08
       1.0490500       0.99999651    3.7929778e-08
       1.0576028       0.99999645    3.9178060e-08
       1.0662253       0.99999640    4.0456062e-08
       1.0749182       0.99999634    4.1786256e-08
       1.0836819       0.99999627    4.3148947e-08
       1.0925170       0.99999621    4.4566615e-08
       1.1014242       0.99999615    4.6019792e-08
       1.1104040       0.99999609    4.7530600e-08
       1.1194570       0.99999602    4.9079963e-08
       1.1285839       0.99999595    5.0689416e-08
       1.1377851       0.99999589    5.2340922e-08
       1.1470613       0.99999582    5.4055963e-08
       1.1564132       0.99999575    5.5816775e-08
       1.1658413       0.99999568    5.7644213e-08
       1.1753463       0.99999560    5.9521355e-08
       1.1849288       0.99999553    6.1468107e-08
       1.1945894       0.99999545    6.3469063e-08
       1.2043288       0.99999538    6.5543494e-08
       1.2141476       0.99999530    6.7676657e-08
       1.2240464       0.99999522    6.9886444e-08
       1.2340259       0.99999514    7.2160278e-08
       1.2440868       0.99999505    7.4514822e-08
       1.2542298       0.99999496    7.6938680e-08
       1.2644554       0.99999487    7.9446998e-08
       1.2747644       0.99999478    8.2030438e-08
       1.2851574       0.99999470    8.4702177e-08
       1.2956351       0.99999462    8.7455757e-08
       1.3061983       0.99999454    9.0302302e-08
       1.3168476       0.99999445    9.3237004e-08
       1.3275838       0.99999436    9.6268305e-08
       1.3384074       0.99999427    9.9395911e-08
       1.3493193       0.99999418    1.0262562e-07
       1.3603202       0.99999408    1.0595885e-07
       1.3714108       0.99999399    1.0939817e-07
       1.3825918       0.99999389    1.1295000e-07
       1.3938639       0.99999379    1.1661311e-07
       1.4052279       0.99999368    1.2039795e-07
       1.4166846       0.99999358    1.2429915e-07
       1.4282347       0.99999348    1.2833246e-07
       1.4398790       0.99999337    1.3248796e-07
       1.4516182       0.99999326    1.3678624e-07
       1.4634531       0.99999315    1.4121184e-07
       1.4753845       0.99999304    1.4579049e-07
       1.4874131       0.99999292    1.5050139e-07
       1.4995399       0.99999280    1.5537964e-07
       1.5117655       0.99999268    1.6039702e-07
       1.5240907       0.99999256    1.6559541e-07
       1.5365165       0.99999244    1.7093895e-07
       1.5490436       0.99999232    1.7647640e-07
       1.5616728       0.99999219    1.8216511e-07
       1.5744049       0.99999206    1.8806475e-07
       1.5872409       0.99999193    1.9412268e-07
       1.6001815       0.99999180    2.0040643e-07
       1.6132277       0.99999166    2.0685467e-07
       1.6263801       0.99999152    2.1354789e-07
       1.6396399       0.99999138    2.2041303e-07
       1.6530077       0.99999124    2.2754317e-07
       1.6664845       0.99999110    2.3485257e-07
       1.6800712       0.99999095    2.4244776e-07
       1.6937687       0.99999080    2.5022961e-07
       1.7075778       0.99999065    2.5831791e-07
       1.7214995       0.99999049    2.6660017e-07
       1.7355347       0.99999034    2.7521520e-07
       1.7496844       0.99999018    2.8403271e-07
       1.7639494       0.99999001    2.9320668e-07
       1.7783307       0.99998985    3.0259139e-07
       1.7928292       0.99998968    3.1235968e-07
       1.8074460       0.99998951    3.2234660e-07
       1.8221819       0.99998934    3.3274938e-07
       1.8370380       0.99998916    3.4338000e-07
       1.8520152       0.99998898    3.5445918e-07
       1.8671145       0.99998880    3.6577497e-07
       1.8823369       0.99998861    3.7757219e-07
       1.8976834       0.99998843    3.8961585e-07
       1.9131550       0.99998823    4.0215874e-07
       1.9287528       0.99998804    4.1496617e-07
       1.9444777       0.99998784    4.2834142e-07
       1.9603309       0.99998764    4.4200396e-07
       1.9763133       0.99998744    4.5621344e-07
       1.9924260       0.99998723    4.7073748e-07
       2.0086700       0.99998702    4.8586145e-07
       2.0250465       0.99998680    5.0132735e-07
       2.0415565       0.99998659    5.1741547e-07
       2.0582011       0.99998636    5.3387773e-07
       2.0749815       0.99998614    5.5100263e-07
       2.0918986       0.99998591    5.6853095e-07
       2.1089536       0.99998568    5.8673400e-07
       2.1261477       0.99998544    6.0537806e-07
       2.1434820       0.99998520    6.2474248e-07
       2.1609576       0.99998495    6.4458746e-07
       2.1785757       0.99998471    6.6519108e-07
       2.1963374       0.99998445    6.8631623e-07
       2.2142439       0.99998420    7.0823636e-07
       2.2322964       0.99998394    7.3071749e-07
       2.2504961       0.99998367    7.5401595e-07
       2.2688442       0.99998340    7.7792850e-07
       2.2873419       0.99998313    8.0271353e-07
       2.3059904       0.99998285    8.2816256e-07
       2.3247909       0.99998256    8.5452134e-07
       2.3437447       0.99998228    8.8159418e-07
       2.3628530       0.99998198    9.0960674e-07
       2.3821171       0.99998169    9.3840372e-07
       2.4015383       0.99998138    9.6820594e-07
       2.4211178       0.99998108    9.9885289e-07
       2.4408569       0.99998077    1.0305441e-06
       2.4607570       0.99998045    1.0631366e-06
       2.4808193       0.99998013    1.0968043e-06
       2.5010452       0.99997980    1.1314628e-06
       2.5214360       0.99997947    1.1672680e-06
       2.5419930       0.99997913    1.2041325e-06
       2.5627176       0.99997878    1.2421764e-06
       2.5836112       0.99997844    1.2813711e-06
       2.6046751       0.99997808    1.3218092e-06
       2.6259108       0.99997772    1.3634948e-06
       2.6473196       0.99997735    1.4064824e-06
       2.6689029       0.99997698    1.4508059e-06
       2.6906622       0.99997660    1.4964796e-06
       2.7125989       0.99997622    1.5436053e-06
       2.7347145       0.99997583    1.5921538e-06
       2.7570104       0.99997543    1.6422503e-06
       2.7794880       0.99997503    1.6938126e-06
       2.8021489       0.99997462    1.7470576e-06
       2.8249946       0.99997420    1.8018467e-06
       2.8480265       0.99997378    1.8584461e-06
       2.8712461       0.99997335    1.9166549e-06
