;  Optical constants for W
;  
;  Concatenation of:
;
;  W_llnl_cxro + W_palik
;
;    Lambda (A)            n            k
;-----------------------------------------
      0.12398000       0.99999968    7.9216349e-09
      0.12499080       0.99999967    8.1607060e-09
      0.12600983       0.99999967    8.4068448e-09
      0.12703718       0.99999966    8.6600962e-09
      0.12807290       0.99999966    8.9198151e-09
      0.12911707       0.99999965    9.1878019e-09
      0.13016975       0.99999965    9.4631299e-09
      0.13123101       0.99999964    9.7458867e-09
      0.13230092       0.99999964    1.0036597e-08
      0.13337956       0.99999963    1.0335718e-08
      0.13446699       0.99999962    1.0645433e-08
      0.13556329       0.99999962    1.0961723e-08
      0.13666852       0.99999961    1.1290270e-08
      0.13778277       0.99999961    1.1625502e-08
      0.13890610       0.99999960    1.1971925e-08
      0.14003858       0.99999959    1.2328260e-08
      0.14118030       0.99999959    1.2694739e-08
      0.14233133       0.99999958    1.3072274e-08
      0.14349175       0.99999957    1.3458464e-08
      0.14466162       0.99999957    1.3859241e-08
      0.14584103       0.99999956    1.4268044e-08
      0.14703006       0.99999955    1.4695434e-08
      0.14822878       0.99999954    1.5134870e-08
      0.14943728       0.99999954    1.5586784e-08
      0.15065563       0.99999953    1.6059367e-08
      0.15188391       0.99999952    1.6541458e-08
      0.15312220       0.99999952    1.7042134e-08
      0.15437059       0.99999951    1.7555093e-08
      0.15562916       0.99999950    1.8082721e-08
      0.15689799       0.99999949    1.8627699e-08
      0.15817716       0.99999948    1.9187948e-08
      0.15946677       0.99999948    1.9761401e-08
      0.16076688       0.99999947    2.0346328e-08
      0.16207760       0.99999946    2.0940760e-08
      0.16339900       0.99999945    2.1547048e-08
      0.16473118       0.99999944    2.2168631e-08
      0.16607422       0.99999944    2.2809082e-08
      0.16742821       0.99999943    2.3472531e-08
      0.16879323       0.99999942    2.4176492e-08
      0.17016939       0.99999941    2.4927021e-08
      0.17155676       0.99999940    2.5668794e-08
      0.17295545       0.99999939    2.6412719e-08
      0.17436554       0.99999939    2.7162877e-08
      0.17578712       0.99999938    2.7947132e-08
      0.17722030       0.99999938    2.8753252e-08
      0.17866516       0.99999937    5.8172336e-09
      0.18012180       0.99999935    5.9988347e-09
      0.18159031       0.99999934    6.1859752e-09
      0.18307080       0.99999932    6.3793844e-09
      0.18456336       0.99999931    6.5789265e-09
      0.18606809       0.99999930    6.7844338e-09
      0.18758508       0.99999929    6.9963407e-09
      0.18911444       0.99999927    7.2151035e-09
      0.19065628       0.99999926    7.4397552e-09
      0.19221068       0.99999925    7.6731753e-09
      0.19377775       0.99999923    7.9117667e-09
      0.19535760       0.99999922    8.1600570e-09
      0.19695034       0.99999921    8.4138233e-09
      0.19855605       0.99999919    8.6768883e-09
      0.20017486       0.99999918    8.9484075e-09
      0.20180687       0.99999917    9.2272095e-09
      0.20345218       0.99999915    9.5156556e-09
      0.20511091       0.99999914    9.8134432e-09
      0.20678315       0.99999912    1.0118886e-08
      0.20846904       0.99999911    1.0434879e-08
      0.21016867       0.99999909    1.0761838e-08
      0.21188215       0.99999908    1.1095409e-08
      0.21360961       0.99999906    1.1441462e-08
      0.21535114       0.99999905    1.1798249e-08
      0.21710688       0.99999903    1.2167204e-08
      0.21887693       0.99999901    1.2546385e-08
      0.22066141       0.99999900    1.2937766e-08
      0.22246045       0.99999898    1.3342147e-08
      0.22427414       0.99999896    1.3758265e-08
      0.22610263       0.99999895    1.4186375e-08
      0.22794602       0.99999893    1.4629222e-08
      0.22980444       0.99999891    1.5082301e-08
      0.23167802       0.99999889    1.5554475e-08
      0.23356687       0.99999888    1.6036340e-08
      0.23547111       0.99999886    1.6537859e-08
      0.23739089       0.99999884    1.7051918e-08
      0.23932631       0.99999882    1.7582582e-08
      0.24127752       0.99999880    1.8131294e-08
      0.24324463       0.99999878    1.8692221e-08
      0.24522778       0.99999876    1.9278148e-08
      0.24722710       0.99999874    1.9875975e-08
      0.24924272       0.99999872    2.0492716e-08
      0.25127477       0.99999870    2.1129302e-08
      0.25332339       0.99999867    2.1785264e-08
      0.25538871       0.99999865    2.2462123e-08
      0.25747087       0.99999863    2.3160934e-08
      0.25957000       0.99999861    2.3880837e-08
      0.26168625       0.99999858    2.4622444e-08
      0.26381975       0.99999856    2.5386362e-08
      0.26597065       0.99999854    2.6176402e-08
      0.26813908       0.99999851    2.6990367e-08
      0.27032520       0.99999849    2.7829601e-08
      0.27252913       0.99999846    2.8695049e-08
      0.27475103       0.99999844    2.9586677e-08
      0.27699105       0.99999841    3.0505990e-08
      0.27924933       0.99999838    3.1449580e-08
      0.28152603       0.99999836    3.2426731e-08
      0.28382128       0.99999833    3.3431153e-08
      0.28613525       0.99999830    3.4471121e-08
      0.28846808       0.99999827    3.5533241e-08
      0.29081993       0.99999825    3.6634674e-08
      0.29319096       0.99999822    3.7770142e-08
      0.29558132       0.99999819    3.8935816e-08
      0.29799117       0.99999816    4.0142658e-08
      0.30042066       0.99999813    4.1384265e-08
      0.30286996       0.99999810    4.2662996e-08
      0.30533923       0.99999806    4.3982100e-08
      0.30782863       0.99999803    4.5343457e-08
      0.31033833       0.99999800    4.6747149e-08
      0.31286848       0.99999797    4.8192241e-08
      0.31541927       0.99999793    4.9681004e-08
      0.31799085       0.99999790    5.1210456e-08
      0.32058340       0.99999786    5.2795842e-08
      0.32319709       0.99999783    5.4425416e-08
      0.32583208       0.99999779    5.6103222e-08
      0.32848856       0.99999776    5.7835537e-08
      0.33116670       0.99999772    5.9613170e-08
      0.33386667       0.99999768    6.1451299e-08
      0.33658865       0.99999764    6.3344626e-08
      0.33933282       0.99999760    6.5291093e-08
      0.34209937       0.99999756    6.7306521e-08
      0.34488847       0.99999752    6.9375055e-08
      0.34770032       0.99999748    7.1510599e-08
      0.35053508       0.99999744    7.3713944e-08
      0.35339296       0.99999740    7.5986325e-08
      0.35627414       0.99999736    7.8324286e-08
      0.35917881       0.99999731    8.0730878e-08
      0.36210716       0.99999727    8.3220172e-08
      0.36505938       0.99999722    8.5778718e-08
      0.36803568       0.99999718    8.8420193e-08
      0.37103624       0.99999713    9.1136098e-08
      0.37406126       0.99999708    9.3947140e-08
      0.37711095       0.99999703    9.6834965e-08
      0.38018549       0.99999698    9.9801775e-08
      0.38328511       0.99999694    1.0286857e-07
      0.38641000       0.99999688    1.0603431e-07
      0.38956036       0.99999683    1.0928663e-07
      0.39273641       0.99999678    1.1264197e-07
      0.39593835       0.99999673    1.1610077e-07
      0.39916640       0.99999667    1.1967075e-07
      0.40242076       0.99999662    1.2333562e-07
      0.40570166       0.99999656    1.2713400e-07
      0.40900931       0.99999651    1.3008059e-07
      0.41234392       0.99999645    1.3137783e-07
      0.41570572       0.99999639    1.3466780e-07
      0.41909493       0.99999633    1.3878163e-07
      0.42251177       0.99999627    1.4304130e-07
      0.42595647       0.99999621    1.4740827e-07
      0.42942925       0.99999614    1.5193253e-07
      0.43293034       0.99999608    1.5656857e-07
      0.43645998       0.99999602    1.6137266e-07
      0.44001840       0.99999595    1.6629296e-07
      0.44360583       0.99999588    1.7139520e-07
      0.44722250       0.99999581    1.7661864e-07
      0.45086866       0.99999575    1.8203648e-07
      0.45454455       0.99999568    1.8758031e-07
      0.45825041       0.99999560    1.9333326e-07
      0.46198648       0.99999553    1.9921733e-07
      0.46575301       0.99999546    2.0532605e-07
      0.46955025       0.99999538    2.1157077e-07
      0.47337845       0.99999531    2.1805755e-07
      0.47723786       0.99999523    2.2468593e-07
      0.48112873       0.99999515    2.3157292e-07
      0.48505133       0.99999507    2.3860683e-07
      0.48900590       0.99999499    2.4591850e-07
      0.49299272       0.99999491    2.5338251e-07
      0.49701204       0.99999483    2.6114479e-07
      0.50106413       0.99999474    2.6906734e-07
      0.50514926       0.99999465    2.7730537e-07
      0.50926770       0.99999457    2.8571559e-07
      0.51341971       0.99999448    2.9445765e-07
      0.51760557       0.99999439    3.0338670e-07
      0.52182555       0.99999429    3.1266180e-07
      0.52607995       0.99999420    3.2213970e-07
      0.53036903       0.99999411    3.3197988e-07
      0.53469307       0.99999401    3.4203986e-07
      0.53905238       0.99999391    3.5247957e-07
      0.54344722       0.99999381    3.6315735e-07
      0.54787789       0.99999371    3.7423287e-07
      0.55234469       0.99999361    3.8556581e-07
      0.55684790       0.99999350    3.9731421e-07
      0.56138783       0.99999340    4.0934123e-07
      0.56596477       0.99999329    4.2180376e-07
      0.57057902       0.99999318    4.3456735e-07
      0.57523090       0.99999307    4.4778426e-07
      0.57992070       0.99999295    4.6132647e-07
      0.58464874       0.99999284    4.7534542e-07
      0.58941532       0.99999272    4.8971596e-07
      0.59422077       0.99999260    5.0458365e-07
      0.59906539       0.99999248    5.1983122e-07
      0.60394951       0.99999236    5.3559892e-07
      0.60887346       0.99999224    5.5177557e-07
      0.61383754       0.99999211    5.6849419e-07
      0.61884210       0.99999198    5.8565463e-07
      0.62388746       0.99999185    6.0338249e-07
      0.62897395       0.99999172    6.2158579e-07
      0.63410192       0.99999159    6.4037903e-07
      0.63927169       0.99999145    6.5968628e-07
      0.64448361       0.99999131    6.7961255e-07
      0.64973802       0.99999117    7.0009144e-07
      0.65503527       0.99999103    7.2121416e-07
      0.66037571       0.99999088    7.4293169e-07
      0.66575969       0.99999074    7.6532418e-07
      0.67118757       0.99999059    7.8835466e-07
      0.67665969       0.99999044    8.1208493e-07
      0.68217644       0.99999028    8.3650247e-07
      0.68773815       0.99999013    8.6165323e-07
      0.69334522       0.99998997    8.8754349e-07
      0.69899799       0.99998981    9.1419836e-07
      0.70469686       0.99998965    9.4164411e-07
      0.71044218       0.99998948    9.6988286e-07
      0.71623435       0.99998931    9.9897578e-07
      0.72207374       0.99998914    1.0288997e-06
      0.72796073       0.99998897    1.0597391e-06
      0.73389573       0.99998879    1.0914416e-06
      0.73987911       0.99998862    1.1241241e-06
      0.74591127       0.99998844    1.1577059e-06
      0.75199261       0.99998825    1.1923395e-06
      0.75812354       0.99998807    1.2279100e-06
      0.76430445       0.99998788    1.2646031e-06
      0.77053575       0.99998769    1.3022706e-06
      0.77681785       0.99998750    1.3411458e-06
      0.78315117       0.99998730    1.3810381e-06
      0.78953613       0.99998710    1.4222241e-06
      0.79597314       0.99998690    1.4644659e-06
      0.80246263       0.99998670    1.5080903e-06
      0.80900503       0.99998649    1.5528113e-06
      0.81560077       0.99998628    1.5990095e-06
      0.82225028       0.99998607    1.6463486e-06
      0.82895401       0.99998586    1.6952697e-06
      0.83571239       0.99998564    1.7453769e-06
      0.84252588       0.99998542    1.7971660e-06
      0.84939491       0.99998520    1.8501835e-06
      0.85631994       0.99998498    1.9050169e-06
      0.86330144       0.99998475    1.9611337e-06
      0.87033985       0.99998452    2.0191668e-06
      0.87743565       0.99998429    2.0785279e-06
      0.88458929       0.99998406    2.1399500e-06
      0.89180126       0.99998383    2.2027540e-06
      0.89907203       0.99998359    2.2677429e-06
      0.90640208       0.99998335    2.3341633e-06
      0.91379189       0.99998311    2.4029242e-06
      0.92124195       0.99998287    2.4731747e-06
      0.92875274       0.99998262    2.5458934e-06
      0.93632477       0.99998238    2.6201535e-06
      0.94395854       0.99998214    2.6970727e-06
      0.95165454       0.99998189    2.7755946e-06
      0.95941329       0.99998165    2.8569106e-06
      0.96723529       0.99998141    2.9398865e-06
      0.97512107       0.99998117    3.0258758e-06
      0.98307114       0.99998093    3.1136133e-06
      0.99108602       0.99998071    3.2044630e-06
      0.99916625       0.99998049    3.2971903e-06
       1.0073124       0.99998031    3.3931680e-06
       1.0155249       0.99998018    3.4911532e-06
       1.0238044       0.99998083    3.5923791e-06
       1.0321513       0.99997970    3.2262700e-06
       1.0405664       0.99997940    3.3246282e-06
       1.0490500       0.99997911    3.4251998e-06
       1.0576028       0.99997895    3.5295732e-06
       1.0662253       0.99997908    3.6362758e-06
       1.0749182       0.99998050    2.6759382e-06
       1.0836819       0.99997814    2.7602617e-06
       1.0925170       0.99997764    2.8474661e-06
       1.1014242       0.99997714    2.9368126e-06
       1.1104040       0.99997674    3.0295679e-06
       1.1194570       0.99997633    3.1246477e-06
       1.1285839       0.99997596    3.2232978e-06
       1.1377851       0.99997560    3.3244719e-06
       1.1470613       0.99997526    3.4293990e-06
       1.1564132       0.99997493    3.5370706e-06
       1.1658413       0.99997464    3.6486870e-06
       1.1753463       0.99997438    3.7632789e-06
       1.1849288       0.99997419    3.8819942e-06
       1.1945894       0.99997416    4.0039409e-06
       1.2043288       0.99997449    4.1302219e-06
       1.2141476       0.99997870    4.2596202e-06
       1.2240464       0.99997544    1.7009730e-06
       1.2340259       0.99997245    1.7507811e-06
       1.2440868       0.99997166    1.8021202e-06
       1.2542298       0.99997091    1.8552688e-06
       1.2644554       0.99997024    1.9107726e-06
       1.2747644       0.99996958    1.9677682e-06
       1.2851574       0.99996894    2.0264697e-06
       1.2956351       0.99996830    2.0868209e-06
       1.3061983       0.99996767    2.1490186e-06
       1.3168476       0.99996704    2.2129865e-06
       1.3275838       0.99996640    2.2788757e-06
       1.3384074       0.99996577    2.3466860e-06
       1.3493193       0.99996512    2.4165226e-06
       1.3603202       0.99996448    2.4883872e-06
       1.3714108       0.99996382    2.5623278e-06
       1.3825918       0.99996316    2.6384695e-06
       1.3938639       0.99996249    2.7167958e-06
       1.4052279       0.99996182    2.7974403e-06
       1.4166846       0.99996113    2.8803233e-06
       1.4282347       0.99996044    2.9657408e-06
       1.4398790       0.99995973    3.0535335e-06
       1.4516182       0.99995902    3.1440718e-06
       1.4634531       0.99995829    3.2370971e-06
       1.4753845       0.99995756    3.3330495e-06
       1.4874131       0.99995681    3.4315817e-06
       1.4995399       0.99995606    3.5332202e-06
       1.5117655       0.99995529    3.6375234e-06
       1.5240907       0.99995451    3.7452221e-06
       1.5365165       0.99995372    3.8557258e-06
       1.5490436       0.99995292    3.9698246e-06
       1.5616728       0.99995211    4.0868309e-06
       1.5744049       0.99995128    4.2076308e-06
       1.5872409       0.99995044    4.3314282e-06
       1.6001815       0.99994959    4.4594352e-06
       1.6132277       0.99994872    4.5906185e-06
       1.6263801       0.99994784    4.7261958e-06
       1.6396399       0.99994695    4.8650371e-06
       1.6530077       0.99994604    5.0087032e-06
       1.6664845       0.99994512    5.1557973e-06
       1.6800712       0.99994418    5.3079158e-06
       1.6937687       0.99994323    5.4635598e-06
       1.7075778       0.99994227    5.6247490e-06
       1.7214995       0.99994128    5.7896390e-06
       1.7355347       0.99994029    5.9603066e-06
       1.7496844       0.99993927    6.1347923e-06
       1.7639494       0.99993825    6.3155170e-06
       1.7783307       0.99993720    6.5002243e-06
       1.7928292       0.99993614    6.6916986e-06
       1.8074460       0.99993506    6.8873121e-06
       1.8221819       0.99993396    7.0901014e-06
       1.8370380       0.99993285    7.2971875e-06
       1.8520152       0.99993172    7.5119370e-06
       1.8671145       0.99993057    7.7311424e-06
       1.8823369       0.99992940    7.9584778e-06
       1.8976834       0.99992821    8.1904470e-06
       1.9131550       0.99992701    8.4313103e-06
       1.9287528       0.99992579    8.6771072e-06
       1.9444777       0.99992454    8.9319347e-06
       1.9603309       0.99992328    9.1920947e-06
       1.9763133       0.99992199    9.4618714e-06
       1.9924260       0.99992069    9.7374066e-06
       2.0086700       0.99991937    1.0022921e-05
       2.0250465       0.99991802    1.0314640e-05
       2.0415565       0.99991665    1.0616746e-05
       2.0582011       0.99991526    1.0925566e-05
       2.0749815       0.99991385    1.1245336e-05
       2.0918986       0.99991242    1.1572330e-05
       2.1089536       0.99991096    1.1910732e-05
       2.1261477       0.99990948    1.2256927e-05
       2.1434820       0.99990798    1.2615056e-05
       2.1609576       0.99990646    1.2981570e-05
       2.1785757       0.99990491    1.3360473e-05
       2.1963374       0.99990333    1.3748451e-05
       2.2142439       0.99990174    1.4149573e-05
       2.2322964       0.99990011    1.4560350e-05
       2.2504961       0.99989846    1.4984495e-05
       2.2688442       0.99989679    1.5419132e-05
       2.2873419       0.99989509    1.5868035e-05
       2.3059904       0.99989336    1.6328147e-05
       2.3247909       0.99989161    1.6802974e-05
       2.3437447       0.99988983    1.7289924e-05
       2.3628530       0.99988802    1.7792389e-05
       2.3821171       0.99988618    1.8307873e-05
       2.4015383       0.99988432    1.8839493e-05
       2.4211178       0.99988243    1.9384976e-05
       2.4408569       0.99988051    1.9947090e-05
       2.4607570       0.99987856    2.0524183e-05
       2.4808193       0.99987658    2.1118845e-05
       2.5010452       0.99987457    2.1729607e-05
       2.5214360       0.99987253    2.2358668e-05
       2.5419930       0.99987045    2.3005036e-05
       2.5627176       0.99986835    2.3670470e-05
       2.5836112       0.99986622    2.4354358e-05
       2.6046751       0.99986405    2.5058019e-05
       2.6259108       0.99986186    2.5781485e-05
       2.6473196       0.99985963    2.6525539e-05
       2.6689029       0.99985736    2.7290859e-05
       2.6906622       0.99985507    2.8077688e-05
       2.7125989       0.99985274    2.8887386e-05
       2.7347145       0.99985037    2.9719601e-05
       2.7570104       0.99984798    3.0576184e-05
       2.7794880       0.99984554    3.1456037e-05
       2.8021489       0.99984308    3.2362095e-05
       2.8249946       0.99984057    3.3292518e-05
       2.8480265       0.99983804    3.4250855e-05
       2.8712461       0.99983546    3.5234464e-05
