;UO 
;UO C2H4-pol.ASC:  Values of n and k for orthorhombic polyethylene
;UO (C2H4)n from various references in HOCII (pg. 972).  References
;UO are 1, 7, 9, 13, 15, 25, 35, 41. 
;UO 
;UO From HANDBOOK OF OPTICAL CONSTANTS IN SOLIDS II edited by Edward D.
;UO Palik. Copyright (c) 1991 by Academic Press, Inc. Reproduced by
;UO permission of the publisher.
;UO ------------------------------------------------------------------ 
;UO  eV        cm-1     um        n         k         n          k 
;UO ------------------------------------------------------------------	
;N  7
;L  Energy[eV]  Wavelength[cm-1]  Wavelength[um]  n  k  n  k  
    1000 8065500 0.001240 -0.0001 1.8E-05 -0.0001 -0.0001
     900 7258900 0.001378 -0.0001 2.3E-05 -0.0001 -0.0001
     800 6452400 0.001550 -0.0001 4.0E-05 -0.0001 -0.0001
     700 5645800 0.001771 -0.0001 7.0E-05 -0.0001 -0.0001
     600 4839300 0.002066 -0.0001 1.1E-04 -0.0001 -0.0001
     500 4032700 0.002480 -0.0001 2.1E-04 -0.0001 -0.0001
     400 3226200 0.003100 -0.0001 5.0E-04 -0.0001 -0.0001
     300 2419600 0.004133 -0.0001 1.4E-03 -0.0001 -0.0001
     282 2274500 0.004379 -0.0001 1.7E-03 -0.0001 -0.0001
     280 2258300 0.004428 -0.0001 8.6E-05 -0.0001 -0.0001
     200 1613100 0.006199 -0.0001 2.3E-04 -0.0001 -0.0001
     150 1209800 0.008266 -0.0001 6.0E-04 -0.0001 -0.0001
     100  906550 0.01240 -0.0001 2.5E-03 -0.0001 -0.0001
      80  645240 0.01550    0.97 -0.0001 -0.0001 -0.0001
      70  564580 0.01771    0.96 -0.0001 -0.0001 -0.0001
      60  483930 0.02066    0.94 1.38E-02 -0.0001 -0.0001
      50  403270 0.02480    0.92 2.5E-02 -0.0001 -0.0001
      40  322620 0.03100    0.89 5.5E-02 -0.0001 -0.0001
      35  282290 0.03542    0.86 -0.0001 -0.0001 -0.0001
      33  266160 0.03757 -0.0001 -0.0001   0.844   0.113
      32  258100 0.03875 -0.0001 -0.0001   0.839   0.119
      31  250030 0.04000 -0.0001 -0.0001   0.835   0.132
      30  241960 0.04133   0.805   0.130   0.825   0.145
      29  233900 0.04275    0.80 -0.0001   0.818   0.171
      28  225830 0.04428    0.79 -0.0001   0.809   0.185
      27  217770 0.04592   0.785 -0.0001   0.809   0.210
      26  209700 0.04769    0.78 -0.0001   0.804   0.236
      25  201640 0.04959   0.775   0.245   0.803   0.274
      24  193570 0.05166    0.77 -0.0001   0.788   0.317
      23  185510 0.05391    0.77 -0.0001   0.796   0.365
      22  177440 0.05636    0.77 -0.0001   0.795   0.403
      21  169380 0.05904   0.775 -0.0001   0.808   0.439
      20  161310 0.06199    0.78   0.440   0.818   0.489
      19  153240 0.06526    0.81   0.500   0.836   0.538
      18  145180 0.06888    0.83   0.565   0.868   0.594
      17  137110 0.07293    0.88    0.64   0.916   0.655
      16  129050 0.07749    0.96   0.720   0.981   0.723
      15  120980 0.08266    1.03   0.805    1.05   0.798
      14  112920 0.08856    1.18   0.860    1.24   0.887
      13  104850 0.09537    1.35   0.807    1.40   0.849
      12   96786  0.1033    1.52   0.680    1.55   0.746
      11   88720  0.1127    1.55   0.550    1.61   0.622
      10   80655  0.1240    1.53   0.580    1.64   0.610
     9.8   79042  0.1265 -0.0001   0.600 -0.0001 -0.0001
     9.6   77429  0.1292 -0.0001   0.615 -0.0001 -0.0001
     9.4   75816  0.1319 -0.0001   0.635 -0.0001 -0.0001
     9.2   74202  0.1348 -0.0001   0.650 -0.0001 -0.0001
     9.0   72589  0.1378    1.66   0.655   1.758   0.626
    8.85   71379  0.1401 -0.0001 -0.0001   1.810   0.604
     8.8   70976  0.1409 -0.0001   0.640 -0.0001 -0.0001
     8.7   70170  0.1425 -0.0001 -0.0001   1.934   0.565
     8.6   69363  0.1442 -0.0001   0.620 -0.0001 -0.0001
    8.55   68960  0.1450 -0.0001 -0.0001   1.981   0.472
     8.4   67750  0.1476 -0.0001   0.530   2.065   0.380
    8.25   66540  0.1503 -0.0001 -0.0001   2.076   0.318
     8.2   66137  0.1512 -0.0001   0.385 -0.0001 -0.0001
    8.10   65330  0.1531 -0.0001 -0.0001   2.067   0.252
     8.0   64524  0.1550    2.08   0.240 -0.0001 -0.0001
    7.95   64121  0.1560 -0.0001 -0.0001   2.634   0.128
     7.8   62911  0.1590 -0.0001   0.145   1.964 8.15E-02
    7.65   61701  0.1621 -0.0001 -0.0001   1.924 4.67E-02
     7.6   61298  0.1631 -0.0001 8.4E-02 -0.0001 -0.0001
     7.5   60491  0.1653 -0.0001 -0.0001   1.877 3.73E-02
     7.4   59685  0.1675 -0.0001 4.5E-02 -0.0001 -0.0001
    7.35   59281  0.1687 -0.0001 -0.0001   1.809 3.04E-02
     7.2   58071  0.1722 -0.0001 2.5E-02   1.732 2.30E-02
    7.05   56862  0.1759 -0.0001 -0.0001   1.715 1.74E-02
     7.0   56458  0.1771    1.76 1.35E-02 -0.0001 -0.0001
     6.9   55652  0.1797 -0.0001 -0.0001   1.694 8.8E-03
     6.8   54845  0.1823 -0.0001 7.70E-03 -0.0001 -0.0001
    6.75   54442  0.1837 -0.0001 -0.0001   1.661 -0.0001
     6.6   53232  0.1879 -0.0001 4.20E-03   1.643 -0.0001
    6.45   52022  0.1922 -0.0001 -0.0001   1.634 -0.0001
     6.4   51619  0.1937 -0.0001 2.35E-03 -0.0001 -0.0001
     6.3   50813  0.1968 -0.0001 -0.0001   1.619 -0.0001
     6.2   50000  0.2000 -0.0001 1.40E-03 -0.0001 -0.0001
    6.15   49603  0.2016 -0.0001 -0.0001   1.608 -0.0001
     6.0   48393  0.2066    1.65 8.6E-04   1.597 -0.0001
    5.85   47183  0.2119 -0.0001 -0.0001   1.578 -0.0001
     5.8   46780  0.2138 -0.0001 6.3E-04 -0.0001 -0.0001
    5.75   46377  0.2156 -0.0001 -0.0001   1.568 -0.0001
     5.6   45167  0.2214 -0.0001 5.1E-04 -0.0001 -0.0001
    5.55   44763  0.2234 -0.0001 -0.0001   1.559 -0.0001
     5.4   43554  0.2296 -0.0001 4.4E-04   1.549 -0.0001
    5.25   42344  0.2361 -0.0001 -0.0001   1.543 -0.0001
     5.2   41940  0.2384 -0.0001 3.8E-04 -0.0001 -0.0001
     5.1   41134  0.2431 -0.0001 -0.0001   1.533 -0.0001
     5.0   40327  0.2480     1.6 2.5E-04 -0.0001 -0.0001
    4.95   39924  0.2505 -0.0001 -0.0001   1.523 -0.0001
     4.9   39521  0.2530 -0.0001   1E-04 -0.0001 -0.0001
     4.8   38714  0.2583 -0.0001 -0.0001   1.517 -0.0001
     4.7   37908  0.2638 -0.0001   1E-05 -0.0001 -0.0001
    4.65   37504  0.2666 -0.0001 -0.0001   1.513 -0.0001
     4.5   36295  0.2755 -0.0001 -0.0001   1.510 -0.0001
    4.35   35085  0.2850 -0.0001 -0.0001   1.507 -0.0001
    4.20   33875  0.2952 -0.0001 -0.0001   1.505 -0.0001
    4.05   32665  0.3061 -0.0001 -0.0001   1.502 -0.0001
    3.90   31455  0.3179 -0.0001 -0.0001   1.500 -0.0001
    3.75   30245  0.3306 -0.0001 -0.0001   1.498 -0.0001
    3.60   29036  0.3444 -0.0001 -0.0001   1.498 -0.0001
    3.45   27826  0.3594 -0.0001 -0.0001   1.498 -0.0001
    3.30   26616  0.3757 -0.0001 -0.0001   1.498 -0.0001
    3.15   25406  0.3936 -0.0001 -0.0001   1.497 -0.0001
    3.00   24196  0.4133 -0.0001 -0.0001   1.495 -0.0001
    2.85   22987  0.4350 -0.0001 -0.0001   1.495 -0.0001
    2.70   21777  0.4592 -0.0001 -0.0001   1.493 -0.0001
    2.55   20567  0.4862 -0.0001 -0.0001   1.492 -0.0001
    2.40   19357  0.5166 -0.0001 -0.0001   1.490 -0.0001
    2.25   18147  0.5511 -0.0001 -0.0001   1.490 -0.0001
    2.25   18147  0.5511  1.5260 -0.0001  1.4590 2.3E-02
    2.10   16935  0.5904 -0.0001 -0.0001   1.482 -0.0001
    1.95   15728  0.6358 -0.0001 -0.0001   1.480 -0.0001
    1.80   14518  0.6888 -0.0001 -0.0001   1.478 -0.0001
    1.65   13308  0.7514 -0.0001 -0.0001   1.476 -0.0001
    1.50   12098  0.8266 -0.0001 -0.0001   1.471 -0.0001
    1.35   10888  0.9184 -0.0001 -0.0001   1.466 -0.0001
  0.7191    5800   1.724     1.5 5.0E-04 -0.0001 -0.0001
  0.7179    5790   1.727 -0.0001 5.3E-04 -0.0001 -0.0001
  0.7166    5780   1.730 -0.0001 5.7E-04 -0.0001 -0.0001
  0.7154    5770   1.733 -0.0001 6.2E-04 -0.0001 -0.0001
  0.7142    5760   1.736 -0.0001 5.7E-04 -0.0001 -0.0001
  0.7129    5750   1.739 -0.0001 4.8E-04 -0.0001 -0.0001
  0.7117    5740   1.742 -0.0001 4.5E-04 -0.0001 -0.0001
  0.7092    5720   1.748 -0.0001 4.1E-04 -0.0001 -0.0001
  0.7067    5700   1.754 -0.0001 4.1E-04 -0.0001 -0.0001
  0.7042    5680   1.761 -0.0001 4.3E-04 -0.0001 -0.0001
  0.7030    5670   1.764 -0.0001 4.7E-04 -0.0001 -0.0001
  0.7018    5660   1.767 -0.0001 4.8E-04 -0.0001 -0.0001
  0.7005    5650   1.770 -0.0001 4.6E-04 -0.0001 -0.0001
  0.6993    5640   1.773 -0.0001 4.4E-04 -0.0001 -0.0001
  0.6968    5620   1.779 -0.0001 4.1E-04 -0.0001 -0.0001
  0.6943    5600   1.786 -0.0001 4.1E-04 -0.0001 -0.0001
  0.6819    5500   1.818 -0.0001 4.0E-04 -0.0001 -0.0001
  0.6695    5400   1.852 -0.0001 3.8E-04 -0.0001 -0.0001
  0.6571    5300   1.887 -0.0001 3.7E-04 -0.0001 -0.0001
  0.6447    5200   1.923 -0.0001 3.7E-04 -0.0001 -0.0001
  0.6323    5100   1.961 -0.0001 3.8E-04 -0.0001 -0.0001
  0.6199    5000   2.000 -0.0001 3.8E-04 -0.0001 -0.0001
  0.6075    4900   2.041 -0.0001 3.8E-04 -0.0001 -0.0001
  0.5951    4800   2.083 -0.0001 3.8E-04 -0.0001 -0.0001
  0.5827    4700   2.128 -0.0001 3.8E-04 -0.0001 -0.0001
  0.5703    4600   2.174 -0.0001 3.9E-04 -0.0001 -0.0001
  0.5579    4500   2.222 -0.0001 4.0E-04 -0.0001 -0.0001
  0.5555    4480   2.232 -0.0001 4.2E-04 -0.0001 -0.0001
  0.5530    4460   2.242 -0.0001 4.4E-04 -0.0001 -0.0001
  0.5505    4440   2.252 -0.0001 4.6E-04 -0.0001 -0.0001
  0.5480    4420   2.262 -0.0001 5.0E-04 -0.0001 -0.0001
  0.5455    4400   2.273 -0.0001 5.7E-04 -0.0001 -0.0001
  0.5431    4380   2.283 -0.0001 7.1E-04 -0.0001 -0.0001
  0.5406    4360   2.294 -0.0001 9.4E-04 -0.0001 -0.0001
  0.5393    4350   2.299 -0.0001 1.2E-03 -0.0001 -0.0001
  0.5381    4340   2.304 -0.0001 1.9E-03 -0.0001 -0.0001
  0.5369    4330   2.309 -0.0001 2.5E-03 -0.0001 -0.0001
  0.5356    4320   2.315 -0.0001 1.7E-03 -0.0001 -0.0001
  0.5344    4310   2.320 -0.0001 1.0E-03 -0.0001 -0.0001
  0.5331    4300   2.326 -0.0001 1.2E-03 -0.0001 -0.0001
  0.5307    4280   2.336 -0.0001 1.2E-03 -0.0001 -0.0001
  0.5294    4270   2.342 -0.0001 1.3E-03 -0.0001 -0.0001
  0.5282    4260   2.347 -0.0001 1.5E-03 -0.0001 -0.0001
  0.5269    4250   2.353 -0.0001 1.8E-03 -0.0001 -0.0001
  0.5257    4240   2.358 -0.0001 1.2E-03 -0.0001 -0.0001
  0.5232    4220   2.370 -0.0001 1.2E-03 -0.0001 -0.0001
  0.5207    4200   2.381 -0.0001 1.4E-03 -0.0001 -0.0001
  0.5183    4180   2.392 -0.0001 1.4E-03 -0.0001 -0.0001
  0.5170    4170   2.398 -0.0001 1.4E-03 -0.0001 -0.0001
  0.5158    4160   2.404 -0.0001 1.4E-03 -0.0001 -0.0001
  0.5145    4150   2.410 -0.0001 1.4E-03 -0.0001 -0.0001
  0.5133    4140   2.415 -0.0001 1.4E-03 -0.0001 -0.0001
  0.5121    4130   2.421 -0.0001 1.3E-03 -0.0001 -0.0001
  0.5108    4120   2.427 -0.0001 1.4E-03 -0.0001 -0.0001
  0.5096    4110   2.433 -0.0001 1.4E-03 -0.0001 -0.0001
  0.5083    4100   2.439 -0.0001 1.4E-03 -0.0001 -0.0001
  0.5071    4090   2.445 -0.0001 1.1E-03 -0.0001 -0.0001
  0.5059    4080   2.451 -0.0001 1.0E-03 -0.0001 -0.0001
  0.5034    4060   2.463 -0.0001 9.4E-04 -0.0001 -0.0001
  0.5009    4040   2.475 -0.0001 8.6E-04 -0.0001 -0.0001
  0.4984    4020   2.488 -0.0001 8.4E-04 -0.0001 -0.0001
  0.4959    4000   2.500 -0.0001 7.1E-04 -0.0001 -0.0001
  0.4947    3990   2.506 -0.0001 7.3E-04 -0.0001 -0.0001
  0.4935    3980   2.513 -0.0001 7.4E-04 -0.0001 -0.0001
  0.4922    3970   2.519 -0.0001 7.0E-04 -0.0001 -0.0001
  0.4910    3960   2.525 -0.0001 7.2E-04 -0.0001 -0.0001
  0.4885    3940   2.538 -0.0001 7.2E-04 -0.0001 -0.0001
  0.4860    3920   2.551 -0.0001 7.9E-04 -0.0001 -0.0001
  0.4835    3900   2.564 -0.0001 8.1E-04 -0.0001 -0.0001
  0.4811    3880   2.577 -0.0001 8.0E-04 -0.0001 -0.0001
  0.4786    3860   2.591 -0.0001 7.7E-04 -0.0001 -0.0001
  0.4761    3840   2.604 -0.0001 7.4E-04 -0.0001 -0.0001
  0.4736    3820   2.618 -0.0001 7.8E-04 -0.0001 -0.0001
  0.4711    3800   2.632 -0.0001 7.7E-04 -0.0001 -0.0001
  0.4687    3780   2.646 -0.0001 7.3E-04 -0.0001 -0.0001
  0.4662    3760   2.660 -0.0001 7.0E-04 -0.0001 -0.0001
  0.4637    3740   2.674 -0.0001 6.8E-04 -0.0001 -0.0001
  0.4612    3720   2.688 -0.0001 6.9E-04 -0.0001 -0.0001
  0.4587    3700   2.703 -0.0001 7.0E-04 -0.0001 -0.0001
  0.4563    3680   2.717 -0.0001 9.8E-04 -0.0001 -0.0001
  0.4538    3660   2.732 -0.0001 8.0E-04 -0.0001 -0.0001
  0.4525    3650   2.740 -0.0001 8.6E-04 -0.0001 -0.0001
  0.4513    3640   2.747 -0.0001 8.1E-04 -0.0001 -0.0001
  0.4501    3630   2.755 -0.0001 8.0E-04 -0.0001 -0.0001
  0.4488    3620   2.762 -0.0001 7.6E-04 -0.0001 -0.0001
  0.4476    3610   2.770 -0.0001 1.0E-03 -0.0001 -0.0001
  0.4463    3600   2.778 -0.0001 8.6E-04 -0.0001 -0.0001
  0.4439    3580   2.793 -0.0001 6.4E-04 -0.0001 -0.0001
  0.4414    3560   2.809 -0.0001 5.8E-04 -0.0001 -0.0001
  0.4389    3540   2.825 -0.0001 5.5E-04 -0.0001 -0.0001
  0.4364    3520   2.841 -0.0001 5.5E-04 -0.0001 -0.0001
  0.4339    3500   2.857 -0.0001 5.5E-04 -0.0001 -0.0001
  0.4315    3480   2.874 -0.0001 5.9E-04 -0.0001 -0.0001
  0.4290    3460   2.890 -0.0001 6.2E-04 -0.0001 -0.0001
  0.4265    3440   2.907 -0.0001 6.6E-04 -0.0001 -0.0001
  0.4240    3420   2.924 -0.0001 6.4E-04 -0.0001 -0.0001
  0.4215    3400   2.941 -0.0001 6.4E-04 -0.0001 -0.0001
  0.4203    3390   2.950 -0.0001 6.8E-04 -0.0001 -0.0001
  0.4191    3380   2.959 -0.0001 7.2E-04 -0.0001 -0.0001
  0.4178    3370   2.967 -0.0001 7.3E-04 -0.0001 -0.0001
  0.4166    3360   2.976 -0.0001 7.1E-04 -0.0001 -0.0001
  0.4141    3340   2.994 -0.0001 6.8E-04 -0.0001 -0.0001
  0.4116    3320   3.012 -0.0001 6.8E-04 -0.0001 -0.0001
  0.4092    3300   3.030 -0.0001 6.8E-04 -0.0001 -0.0001
  0.4067    3280   3.049 -0.0001 6.8E-04 -0.0001 -0.0001
  0.4042    3260   3.067 -0.0001 7.1E-04 -0.0001 -0.0001
  0.4017    3240   3.086 -0.0001 7.3E-04 -0.0001 -0.0001
  0.3992    3220   3.106 -0.0001 7.6E-04 -0.0001 -0.0001
  0.3968    3200   3.125 -0.0001 7.7E-04 -0.0001 -0.0001
  0.3943    3180   3.145 -0.0001 7.9E-04 -0.0001 -0.0001
  0.3918    3160   3.165 -0.0001 8.6E-04 -0.0001 -0.0001
  0.3893    3140   3.185 -0.0001 9.5E-04 -0.0001 -0.0001
  0.3868    3120   3.205 -0.0001 1.8E-03 -0.0001 -0.0001
  0.3844    3100   3.226 -0.0001 1.5E-03 -0.0001 -0.0001
  0.3819    3080   3.247 -0.0001 2.3E-03 -0.0001 -0.0001
  0.3794    3060   3.268 -0.0001 2.7E-03 -0.0001 -0.0001
  0.3769    3040   3.289 -0.0001 3.1E-03 -0.0001 -0.0001
  0.3744    3020   3.311 -0.0001 3.8E-03 -0.0001 -0.0001
  0.3720    3000   3.333 -0.0001 4.5E-03 -0.0001 -0.0001
  0.3695    2980   3.356 -0.0001 6.1E-03 -0.0001 -0.0001
  0.3670    2960   3.378 -0.0001 9.5E-03 -0.0001 -0.0001
  0.3645    2940   3.401 -0.0001 2.8E-02 -0.0001 -0.0001
  0.3633    2930   3.413 -0.0001 7.3E-02 -0.0001 -0.0001
  0.3620    2920   3.425 -0.0001 1.9E-01 -0.0001 -0.0001
  0.3608    2910   3.436 -0.0001 8.8E-02 -0.0001 -0.0001
  0.3596    2900   3.448 -0.0001 5.2E-02 -0.0001 -0.0001
  0.3583    2890   3.460 -0.0001 4.6E-02 -0.0001 -0.0001
  0.3571    2880   3.472 -0.0001 2.5E-02 -0.0001 -0.0001
  0.3558    2870   3.484 -0.0001 2.2E-02 -0.0001 -0.0001
  0.3546    2860   3.497 -0.0001 3.3E-02 -0.0001 -0.0001
  0.3534    2850   3.509 -0.0001 1.5E-01 -0.0001 -0.0001
  0.3521    2840   3.521 -0.0001 3.6E-02 -0.0001 -0.0001
  0.3509    2830   3.534 -0.0001 1.5E-02 -0.0001 -0.0001
  0.3496    2820   3.546 -0.0001 1.1E-02 -0.0001 -0.0001
  0.3472    2800   3.571 -0.0001 7.8E-03 -0.0001 -0.0001
  0.3447    2780   3.597 -0.0001 3.6E-03 -0.0001 -0.0001
  0.3422    2760   3.623 -0.0001 2.9E-03 -0.0001 -0.0001
  0.3397    2740   3.650 -0.0001 2.6E-03 -0.0001 -0.0001
  0.3372    2720   3.676 -0.0001 2.4E-03 -0.0001 -0.0001
  0.3348    2700   3.703 -0.0001 2.1E-03 -0.0001 -0.0001
  0.3323    2680   3.731 -0.0001 1.8E-03 -0.0001 -0.0001
  0.3310    2670   3.745 -0.0001 2.3E-03 -0.0001 -0.0001
  0.3298    2660   3.759 -0.0001 3.8E-03 -0.0001 -0.0001
  0.3286    2650   3.774 -0.0001 2.4E-03 -0.0001 -0.0001
  0.3273    2640   3.788 -0.0001 2.8E-03 -0.0001 -0.0001
  0.3261    2630   3.802 -0.0001 2.5E-03 -0.0001 -0.0001
  0.3248    2620   3.817 -0.0001 2.5E-03 -0.0001 -0.0001
  0.3224    2600   3.846 -0.0001 1.8E-03 -0.0001 -0.0001
  0.3199    2580   3.876 -0.0001 1.5E-03 -0.0001 -0.0001
  0.3174    2560   3.906 -0.0001 1.4E-03 -0.0001 -0.0001
  0.3162    2550   3.922 -0.0001 1.0E-03 -0.0001 -0.0001
  0.3149    2540   3.937 -0.0001 1.1E-03 -0.0001 -0.0001
  0.3137    2530   3.953 -0.0001 8.5E-04 -0.0001 -0.0001
  0.3124    2520   3.968 -0.0001 1.1E-03 -0.0001 -0.0001
  0.3100    2500   4.000 -0.0001 6.3E-04 -0.0001 -0.0001
  0.3087    2490   4.016 -0.0001 6.1E-04 -0.0001 -0.0001
  0.3075    2480   4.032 -0.0001 6.4E-04 -0.0001 -0.0001
  0.3062    2470   4.049 -0.0001 5.8E-04 -0.0001 -0.0001
  0.3050    2460   4.065 -0.0001 5.1E-04 -0.0001 -0.0001
  0.3025    2440   4.098 -0.0001 5.0E-04 -0.0001 -0.0001
  0.3000    2420   4.132 -0.0001 6.3E-04 -0.0001 -0.0001
  0.2988    2410   4.149 -0.0001 6.3E-04 -0.0001 -0.0001
  0.2976    2400   4.167 -0.0001 5.7E-04 -0.0001 -0.0001
  0.2951    2380   4.202 -0.0001 5.2E-04 -0.0001 -0.0001
  0.2926    2360   4.237 -0.0001 6.7E-04 -0.0001 -0.0001
  0.2914    2350   4.255 -0.0001 1.1E-03 -0.0001 -0.0001
  0.2901    2340   4.274 -0.0001 1.1E-03 -0.0001 -0.0001
  0.2889    2330   4.292 -0.0001 1.1E-03 -0.0001 -0.0001
  0.2876    2320   4.310 -0.0001 9.6E-04 -0.0001 -0.0001
  0.2852    2300   4.348 -0.0001 6.8E-04 -0.0001 -0.0001
  0.2839    2290   4.367 -0.0001 6.6E-04 -0.0001 -0.0001
  0.2827    2280   4.386 -0.0001 7.0E-04 -0.0001 -0.0001
  0.2814    2270   4.405 -0.0001 6.3E-04 -0.0001 -0.0001
  0.2802    2260   4.425 -0.0001 5.1E-04 -0.0001 -0.0001
  0.2790    2250   4.444 -0.0001 5.0E-04 -0.0001 -0.0001
  0.2777    2240   4.464 -0.0001 6.2E-04 -0.0001 -0.0001
  0.2765    2230   4.484 -0.0001 4.5E-04 -0.0001 -0.0001
  0.2752    2220   4.505 -0.0001 5.2E-04 -0.0001 -0.0001
  0.2740    2210   4.525 -0.0001 4.6E-04 -0.0001 -0.0001
  0.2728    2200   4.545 -0.0001 4.6E-04 -0.0001 -0.0001
  0.2715    2190   4.566 -0.0001 4.9E-04 -0.0001 -0.0001
  0.2703    2180   4.587 -0.0001 4.9E-04 -0.0001 -0.0001
  0.2690    2170   4.608 -0.0001 4.9E-04 -0.0001 -0.0001
  0.2678    2160   4.630 -0.0001 5.4E-04 -0.0001 -0.0001
  0.2666    2150   4.651 -0.0001 5.7E-04 -0.0001 -0.0001
  0.2653    2140   4.673 -0.0001 5.3E-04 -0.0001 -0.0001
  0.2641    2130   4.695 -0.0001 4.5E-04 -0.0001 -0.0001
  0.2628    2120   4.717 -0.0001 4.2E-04 -0.0001 -0.0001
  0.2604    2100   4.762 -0.0001 4.3E-04 -0.0001 -0.0001
  0.2579    2080   4.808 -0.0001 4.4E-04 -0.0001 -0.0001
  0.2554    2060   4.854 -0.0001 5.0E-04 -0.0001 -0.0001
  0.2529    2040   4.902 -0.0001 6.9E-04 -0.0001 -0.0001
  0.2517    2030   4.926 -0.0001 8.3E-04 -0.0001 -0.0001
  0.2505    2020   4.950 -0.0001 1.0E-03 -0.0001 -0.0001
  0.2492    2010   4.975 -0.0001 6.2E-04 -0.0001 -0.0001
  0.2480    2000   5.000 -0.0001 5.0E-04 -0.0001 -0.0001
  0.2455    1980   5.051 -0.0001 4.5E-04 -0.0001 -0.0001
  0.2430    1960   5.102 -0.0001 5.3E-04 -0.0001 -0.0001
  0.2418    1950   5.128 -0.0001 5.3E-04 -0.0001 -0.0001
  0.2405    1940   5.155 -0.0001 5.1E-04 -0.0001 -0.0001
  0.2381    1920   5.208 -0.0001 5.5E-04 -0.0001 -0.0001
  0.2368    1910   5.236 -0.0001 6.4E-04 -0.0001 -0.0001
  0.2356    1900   5.263 -0.0001 8.1E-04 -0.0001 -0.0001
  0.2343    1890   5.291 -0.0001 7.3E-04 -0.0001 -0.0001
  0.2331    1880   5.319 -0.0001 4.5E-04 -0.0001 -0.0001
  0.2306    1860   5.376 -0.0001 3.6E-04 -0.0001 -0.0001
  0.2281    1840   5.435 -0.0001 3.9E-04 -0.0001 -0.0001
  0.2269    1830   5.464 -0.0001 4.7E-04 -0.0001 -0.0001
  0.2257    1820   5.495 -0.0001 5.9E-04 -0.0001 -0.0001
  0.2244    1810   5.525 -0.0001 4.9E-04 -0.0001 -0.0001
  0.2232    1800   5.556 -0.0001 4.6E-04 -0.0001 -0.0001
  0.2219    1790   5.587 -0.0001 4.4E-04 -0.0001 -0.0001
  0.2207    1780   5.618 -0.0001 4.3E-04 -0.0001 -0.0001
  0.2195    1770   5.650 -0.0001 4.3E-04 -0.0001 -0.0001
  0.2182    1760   5.682 -0.0001 4.6E-04 -0.0001 -0.0001
  0.2170    1750   5.714 -0.0001 5.4E-04 -0.0001 -0.0001
  0.2157    1740   5.747 -0.0001 6.9E-04 -0.0001 -0.0001
  0.2145    1730   5.780 -0.0001 7.0E-04 -0.0001 -0.0001
  0.2133    1720   5.814 -0.0001 6.2E-04 -0.0001 -0.0001
  0.2120    1710   5.848 -0.0001 5.5E-04 -0.0001 -0.0001
  0.2108    1700   5.882 -0.0001 5.2E-04 -0.0001 -0.0001
  0.2095    1690   5.917 -0.0001 5.2E-04 -0.0001 -0.0001
  0.2083    1680   5.952 -0.0001 5.2E-04 -0.0001 -0.0001
