;UO 
;UO CsI.ASC:  Values of n and k for cubic cesium iodide from various
;UO references in HOCII (pg. 859).  References are 1, 2, 3, 4, 5,
;UO 6, 8, 9.
;UO 
;UO Copyright (c) 1995 by the Optical Society of America.  Data
;UO from HANDBOOK OF OPTICAL CONSTANTS IN SOLIDS II edited by Edward D.
;UO Palik. Copyright (c) 1991 by Academic Press, Inc. Reproduced by
;UO permission of the publisher.
;UO ------------------------------------------------------------
;UO   eV    cm-1         um         n       k	
;UO ------------------------------------------------------------
;N  5
;L  Energy[eV]  Wavelength[cm-1]  Wavelength[um]  n  k  
   2000. 16130000. 0.000620 0.999822 4.71E-05
   1952. 15740000. 0.000635 0.999814 5.11E-05
   1905. 15360000. 0.000651 0.999804 5.55E-05
   1860. 15000000. 0.000667 0.999795 6.02E-05
   1815. 14640000. 0.000683 0.999786 6.52E-05
   1772. 14290000. 0.000700 0.999776 7.07E-05
   1730. 13950000. 0.000717 0.999765 7.67E-05
   1688. 13610000. 0.000734 0.999755 8.29E-05
   1648. 13290000. 0.000752 0.999744 8.98E-05
   1609. 12980000. 0.000771 0.999732 9.74E-05
   1570. 12660000. 0.000790 0.999720 1.06E-04
   1533. 12360000. 0.000809 0.999709 1.14E-04
   1496. 12070000. 0.000829 0.999696 1.24E-04
   1460. 11780000. 0.000849 0.999683 1.34E-04
   1426. 11500000. 0.000869 0.999671 1.45E-04
   1392. 11230000. 0.000891 0.999657 1.57E-04
   1358. 10950000. 0.000913 0.999643 1.70E-04
   1326. 10690000. 0.000935 0.999630 1.83E-04
   1294. 10440000. 0.000958 0.999616 1.98E-04
   1263. 10190000. 0.000982 0.999602 2.15E-04
   1233. 9945000. 0.001006 0.999589 2.32E-04
   1204. 9711000. 0.001030 0.999576 2.49E-04
   1175. 9477000. 0.001055 0.999563 2.68E-04
   1147. 9251000. 0.001081 0.999551 2.89E-04
   1119. 9025000. 0.001108 0.999540 3.12E-04
   1093. 8816000. 0.001134 0.999530 3.35E-04
   1067. 8606000. 0.001162 0.999527 3.61E-04
   1041. 8396000. 0.001191 0.999533 3.90E-04
   1016. 8195000. 0.001220 0.999527 3.69E-04
    992. 8001000. 0.001250 0.999494 3.90E-04
    968. 7807000. 0.001281 0.999473 4.22E-04
    945. 7622000. 0.001312 0.999459 4.56E-04
    923. 7444000. 0.001343 0.999455 4.86E-04
    901. 7267000. 0.001376 0.999447 5.08E-04
    879. 7090000. 0.001410 0.999434 5.32E-04
    858. 6920000. 0.001445 0.999412 5.58E-04
    838. 6759000. 0.001479 0.999390 6.00E-04
    818. 6598000. 0.001516 0.999379 6.57E-04
    798. 6436000. 0.001554 0.999389 7.20E-04
    779. 6283000. 0.001592 0.999434 7.88E-04
    760. 6130000. 0.001631 0.999525 8.65E-04
    742. 5985000. 0.001671 0.999649 9.48E-04
    725. 5847000. 0.001710 1.000202 5.23E-04
    707. 5702000. 0.001754 0.999730 5.68E-04
    690. 5565000. 0.001797 0.999633 6.15E-04
    674. 5436000. 0.001839 0.999605 6.64E-04
    658. 5307000. 0.001884 0.999658 7.24E-04
    642. 5178000. 0.001931 0.999781 7.91E-04
    627. 5057000. 0.001977 1.000059 2.29E-04
    612. 4936000. 0.002026 0.999702 2.43E-04
    597. 4815000. 0.002077 0.999512 2.58E-04
    583. 4702000. 0.002127 0.999403 2.74E-04
    569. 4589000. 0.002179 0.999312 2.91E-04
    555. 4476000. 0.002234 0.999230 3.09E-04
    542. 4371000. 0.002287 0.999158 3.28E-04
    529. 4267000. 0.002344 0.999082 3.47E-04
    516. 4162000. 0.002403 0.999008 3.68E-04
    504. 4065000. 0.002460 0.99894 3.88E-04
    492. 3968000. 0.002520 0.99886 4.10E-04
    480. 3871000. 0.002583 0.99879 4.33E-04
    469. 3783000. 0.00264 0.99872 4.56E-04
    458. 3694000. 0.00271 0.99863 4.83E-04
    447. 3605000. 0.00277 0.99856 5.10E-04
    436. 3517000. 0.00284 0.99848 5.37E-04
    426. 3436000. 0.00291 0.99840 5.65E-04
    415. 3347000. 0.00299 0.99831 5.97E-04
    406. 3275000. 0.00305 0.99824 6.22E-04
    396. 3194000. 0.00313 0.99814 6.56E-04
    386. 3113000. 0.00321 0.99805 6.85E-04
    377. 3041000. 0.00329 0.99795 7.15E-04
    368. 2968000. 0.00337 0.99785 7.44E-04
    359. 2896000. 0.00345 0.99775 7.72E-04
    351. 2831000. 0.00353 0.99764 8.01E-04
    342. 2758000. 0.00363 0.99751 8.36E-04
    334. 2694000. 0.00371 0.99740 8.63E-04
    326. 2629000. 0.00380 0.99728 8.92E-04
    318. 2565000. 0.00390 0.99714 9.27E-04
    311. 2508000. 0.00399 0.99701 9.55E-04
    303. 2444000. 0.00409 0.99686 9.85E-04
    296. 2387000. 0.00419 0.99671 1.01E-03
    289. 2331000. 0.00429 0.99655 1.04E-03
    282. 2274000. 0.00440 0.99637 1.07E-03
    275. 2218000. 0.00451 0.99619 1.10E-03
    269. 2170000. 0.00461 0.99602 1.11E-03
    262. 2113000. 0.00473 0.99580 1.13E-03
    256. 2065000. 0.00484 0.99559 1.14E-03
    250. 2016000. 0.00496 0.99536 1.16E-03
    244. 1968000. 0.00508 0.99510 1.17E-03
    238. 1920000. 0.00521 0.99481 1.18E-03
    232. 1871000. 0.00534 0.99451 1.19E-03
    227. 1831000. 0.00546 0.99421 1.19E-03
    221. 1782000. 0.00561 0.99382 1.20E-03
    216. 1742000. 0.00574 0.99347 1.21E-03
    211. 1702000. 0.00588 0.99306 1.22E-03
    206. 1661000. 0.00602 0.99262 1.23E-03
    201. 1621000. 0.00617 0.99213 1.25E-03
    196. 1581000. 0.00633 0.99158 1.28E-03
    191. 1541000. 0.00649 0.99100 1.29E-03
    187. 1508000. 0.00663 0.99041 1.28E-03
    182. 1468000. 0.00681  0.9895 1.30E-03
    178. 1436000. 0.00697  0.9888 1.40E-03
    174. 1403000. 0.00713  0.9880 1.52E-03
    170. 1371000. 0.00729  0.9871 1.68E-03
    166. 1339000. 0.00747  0.9860 1.91E-03
    162. 1307000. 0.00765  0.9848 2.20E-03
    158. 1274000. 0.00785  0.9835 2.61E-03
    154. 1242000. 0.00805  0.9820 3.17E-03
    150. 1210000. 0.00827  0.9803 3.97E-03
    147. 1186000. 0.00843  0.9790 4.71E-03
    143. 1153000. 0.00867  0.9770 5.97E-03
    140. 1129000. 0.00886  0.9752 7.37E-03
    136. 1097000. 0.00912  0.9731 9.84E-03
    133. 1073000. 0.00932  0.9716 1.21E-02
    130. 1049000. 0.00954  0.9703 1.50E-02
    127. 1024000. 0.00976  0.9696 1.81E-02
    124. 1000000. 0.01000  0.9691 2.14E-02
    121. 975900. 0.01025  0.9691 2.50E-02
    118. 951700. 0.01051  0.9696 2.91E-02
    115. 927500. 0.01078  0.9714 3.34E-02
    112. 903300. 0.01107  0.9737 3.65E-02
    110. 887200. 0.01127  0.9755 3.84E-02
    107. 863000. 0.01159  0.9784 4.12E-02
    104. 838800. 0.01192  0.9818 4.36E-02
    102. 822700. 0.01215  0.9842 4.48E-02
    100. 806500. 0.01240  0.9869 4.62E-02
    11.4  91950.  0.1088 -0.0001   0.428
    11.3  91140.  0.1097    0.86   0.445
    11.2  90330.  0.1107    0.88   0.453
    11.1  89530.  0.1117    0.91   0.473
    11.0  88720.  0.1127    0.93   0.478
    10.9  87910.  0.1137    0.93   0.478
    10.8  87110.  0.1148    0.93   0.486
    10.7  86300.  0.1159    0.93   0.490
    10.6  85490.  0.1170    0.93   0.506
    10.5  84690.  0.1181    0.91   0.531
    10.4  83880.  0.1192    0.92   0.576
    10.3  83070.  0.1204    0.93   0.629
    10.2  82270.  0.1216    0.95   0.694
    10.1  81460.  0.1228    0.98   0.771
    10.0  80650.  0.1240    1.04   0.853
     9.9  79850.  0.1252    1.10   0.939
     9.8  79040.  0.1265    1.16   1.016
     9.7  78240.  0.1278    1.22   1.045
     9.6  77430.  0.1292    1.27   1.029
     9.5  76620.  0.1305    1.31   1.012
     9.4  75820.  0.1319    1.34   1.037
     9.3  75010.  0.1333    1.37   1.061
     9.2  74200.  0.1348    1.39   1.073
     9.1  73400.  0.1362    1.40   1.098
     9.0  72590.  0.1378    1.40   1.127
     8.9  71780.  0.1393    1.40   1.143
     8.8  70980.  0.1409    1.39   1.184
     8.7  70170.  0.1425    1.42   1.298
     8.6  69360.  0.1442    1.46   1.420
     8.5  68560.  0.1459    1.53   1.498
     8.4  67750.  0.1476    1.72   1.714
     8.3  66940.  0.1494    1.95   1.824
     8.2  66140.  0.1512    2.12   1.824
     8.1  65330.  0.1531    2.41   1.857
     8.0  64520.  0.1550    2.56   1.763
     7.9  63720.  0.1569    2.73   1.678
     7.8  62910.  0.1590    2.95   1.571
     7.7  62100.  0.1610    3.15   1.347
     7.6  61300.  0.1631    3.08   0.824
     7.5  60490.  0.1653    2.73   0.649
     7.4  59680.  0.1675    2.39   0.612
     7.3  58880.  0.1698    2.13   0.690
     7.2  58070.  0.1722    2.01   0.878
     7.1  57260.  0.1746    2.11   1.253
     7.0  56460.  0.1771    2.38   1.461
     6.9  55650.  0.1797    2.81   1.376
     6.8  54850.  0.1823    2.84   1.139
     6.7  54040.  0.1851    3.05   1.102
     6.6  53230.  0.1879    3.18   0.922
     6.5  52430.  0.1907    2.96   0.514
     6.4  51620.  0.1937    2.79   0.371
     6.3  50810.  0.1968    2.66   0.404
     6.2  50010.  0.2000    2.55   0.424
     6.1  49200.  0.2033    2.53   0.543
     6.0  48390.  0.2066    2.86   0.784
     5.9  47590.  0.2101    3.05   0.490
     5.8  46780.  0.2138    2.81   0.118
     5.7  45970.  0.2175    2.59   0.208
     5.6  45170.  0.2214    2.99   0.408
     5.5  44360.  0.2254    2.97   0.196
     5.4  43550.  0.2296    2.76 -0.0001
     5.3  42750.  0.2339    2.48 -0.0001
     5.2  41940.  0.2384    2.33 -0.0001
     5.1  41130.  0.2431    2.21 -0.0001
     5.0  40330.  0.2480    2.14 -0.0001
   4.959  40000.   0.250 2.20938 -0.0001
   4.920  39680.   0.252 2.19248 -0.0001
   4.881  39370.   0.254 2.17676 -0.0001
   4.843  39060.   0.256 2.16208 -0.0001
   4.806  38760.   0.258 2.14834 -0.0001
   4.769  38460.   0.260 2.13545 -0.0001
   4.732  38170.   0.262 2.12333 -0.0001
   4.696  37880.   0.264 2.11190 -0.0001
   4.661  37590.   0.266 2.10110 -0.0001
   4.626  37310.   0.268 2.09089 -0.0001
   4.592  37040.   0.270 2.08121 -0.0001
   4.558  36760.   0.272 2.07202 -0.0001
   4.525  36500.   0.274 2.06328 -0.0001
   4.492  36230.   0.276 2.05496 -0.0001
   4.460  35970.   0.278 2.04703 -0.0001
   4.428  35710.   0.280 2.03946 -0.0001
   4.397  35460.   0.282 2.03222 -0.0001
   4.366  35210.   0.284 2.02530 -0.0001
   4.335  34970.   0.286 2.01867 -0.0001
   4.305  34720.   0.288 2.01232 -0.0001
   4.275  34480.   0.290 2.00622 -0.0001
   4.246  34250.   0.292 2.00037 -0.0001
   4.217  34010.   0.294 1.99474 -0.0001
   4.189  33780.   0.296 1.98932 -0.0001
   4.161  33560.   0.298 1.98411 -0.0001
   4.133  33330.   0.300 1.97909 -0.0001
   4.065  32790.   0.305 1.96731 -0.0001
   4.000  32260.   0.310 1.95651 -0.0001
   3.936  31750.   0.315 1.94658 -0.0001
   3.875  31250.   0.320 1.93741 -0.0001
   3.815  30770.   0.325 1.92893 -0.0001
   3.757  30300.   0.330 1.92106 -0.0001
   3.701  29850.   0.335 1.91373 -0.0001
   3.647  29410.   0.340 1.90690 -0.0001
   3.594  28990.   0.345 1.90051 -0.0001
   3.542  28570.   0.350 1.89453 -0.0001
   3.493  28170.   0.355 1.88891 -0.0001
   3.444  27780.   0.360 1.88363 -0.0001
   3.397  27400.   0.365 1.87866 -0.0001
   3.351  27030.   0.370 1.87397 -0.0001
   3.306  26670.   0.375 1.86954 -0.0001
   3.263  26320.   0.380 1.86535 -0.0001
   3.220  25970.   0.385 1.86138 -0.0001
   3.179  25640.   0.390 1.85762 -0.0001
   3.139  25320.   0.395 1.85404 -0.0001
   3.100  25000.    0.40 1.85064 -0.0001
   3.024  24390.    0.41 1.84433 -0.0001
   2.952  23810.    0.42 1.83859 -0.0001
   2.883  23260.    0.43 1.83336 -0.0001
   2.818  22730.    0.44 1.82857 -0.0001
   2.755  22220.    0.45 1.82417 -0.0001
   2.695  21740.    0.46 1.82012 -0.0001
   2.638  21280.    0.47 1.81637 -0.0001
   2.583  20830.    0.48 1.81291 -0.0001
   2.530  20410.    0.49 1.80970 -0.0001
   2.480  20000.    0.50 1.80672 -0.0001
   2.431  19610.    0.51 1.80393 -0.0001
   2.384  19230.    0.52 1.80134 -0.0001
   2.339  18870.    0.53 1.79891 -0.0001
   2.296  18520.    0.54 1.79664 -0.0001
   2.254  18180.    0.55 1.79451 -0.0001
   2.214  17860.    0.56 1.79250 -0.0001
   2.175  17540.    0.57 1.79062 -0.0001
   2.138  17240.    0.58 1.78884 -0.0001
   2.101  16950.    0.59 1.78717 -0.0001
   2.066  16670.    0.60 1.78559 -0.0001
   2.000  16130.    0.62 1.78268 -0.0001
   1.937  15630.    0.64 1.78006 -0.0001
   1.879  15150.    0.66 1.77770 -0.0001
   1.823  14710.    0.68 1.77557 -0.0001
   1.771  14290.    0.70 1.77363 -0.0001
   1.722  13890.    0.72 1.77186 -0.0001
   1.675  13510.    0.74 1.77025 -0.0001
   1.631  13160.    0.76 1.76877 -0.0001
   1.590  12820.    0.78 1.76741 -0.0001
   1.550  12500.    0.80 1.76615 -0.0001
   1.512  12200.    0.82 1.76500 -0.0001
   1.476  11900.    0.84 1.76392 -0.0001
   1.442  11630.    0.86 1.76293 -0.0001
   1.409  11360.    0.88 1.76201 -0.0001
   1.378  11110.    0.90 1.76115 -0.0001
   1.348  10870.    0.92 1.76035 -0.0001
   1.319  10640.    0.94 1.75960 -0.0001
   1.292  10420.    0.96 1.75890 -0.0001
   1.265  10200.    0.98 1.75824 -0.0001
   1.240  10000.    1.00 1.75736 -0.0001
   1.181   9524.    1.05 1.75624 -0.0001
   1.127   9091.    1.10 1.75505 -0.0001
   1.078   8696.    1.15 1.75401 -0.0001
   1.033   8333.    1.20 1.75310 -0.0001
  0.9919   8000.    1.25 1.75230 -0.0001
  0.9537   7692.    1.30 1.75160 -0.0001
  0.9184   7407.    1.35 1.75097 -0.0001
  0.8856   7143.    1.40 1.75040 -0.0001
  0.8551   6896.    1.45 1.74990 -0.0001
  0.8267   6667.    1.50 1.74944 -0.0001
  0.7999   6452.    1.55 1.74903 -0.0001
  0.7749   6250.    1.60 1.74866 -0.0001
  0.7514   6061.    1.65 1.74832 -0.0001
  0.7293   5882.    1.70 1.74801 -0.0001
  0.7085   5714.    1.75 1.74772 -0.0001
  0.6888   5556.    1.80 1.74746 -0.0001
  0.6702   5405.    1.85 1.74721 -0.0001
  0.6526   5263.    1.90 1.74699 -0.0001
  0.6358   5128.    1.95 1.74678 -0.0001
  0.6199   5000.    2.00 1.74659 -0.0001
  0.6048   4878.    2.05 1.74641 -0.0001
  0.5904   4762.    2.10 1.74625 -0.0001
  0.5767   4651.    2.15 1.74609 -0.0001
  0.5636   4545.    2.20 1.74594 -0.0001
  0.5510   4444.    2.25 1.74581 -0.0001
  0.5391   4348.    2.30 1.74568 -0.0001
  0.5276   4255.    2.35 1.74555 -0.0001
  0.5166   4167.    2.40 1.74544 -0.0001
  0.5061   4082.    2.45 1.74533 -0.0001
  0.4959   4000.    2.50 1.74523 -0.0001
  0.4862   3922.    2.55 1.74513 -0.0001
  0.4769   3846.    2.60 1.74504 -0.0001
  0.4679   3774.    2.65 1.74495 -0.0001
  0.4592   3704.    2.70 1.74487 -0.0001
  0.4509   3636.    2.75 1.74479 -0.0001
  0.4428   3571.    2.80 1.74471 -0.0001
  0.4350   3509.    2.85 1.74464 -0.0001
  0.4275   3448.    2.90 1.74457 -0.0001
  0.4203   3390.    2.95 1.74450 -0.0001
  0.4133   3333.    3.00 1.74443 -0.0001
  0.4065   3279.    3.05 1.74437 -0.0001
  0.4000   3226.    3.10 1.74431 -0.0001
  0.3936   3175.    3.15 1.74425 -0.0001
  0.3875   3125.    3.20 1.74420 -0.0001
  0.3815   3077.    3.25 1.74414 -0.0001
  0.3757   3030.    3.30 1.74409 -0.0001
  0.3701   2985.    3.35 1.74404 -0.0001
  0.3647   2941.    3.40 1.74399 -0.0001
  0.3594   2899.    3.45 1.74394 -0.0001
  0.3542   2857.    3.50 1.74390 -0.0001
  0.3493   2817.    3.55 1.74385 -0.0001
  0.3444   2778.    3.60 1.74381 -0.0001
  0.3397   2740.    3.65 1.74376 -0.0001
  0.3351   2703.    3.70 1.74372 -0.0001
  0.3306   2667.    3.75 1.74368 -0.0001
  0.3263   2632.    3.80 1.74364 -0.0001
  0.3220   2597.    3.85 1.74360 -0.0001
  0.3179   2564.    3.90 1.74356 -0.0001
  0.3139   2532.    3.95 1.74352 -0.0001
  0.3100   2500.    4.00 1.74349 -0.0001
  0.3061   2469.    4.05 1.74345 -0.0001
  0.3024   2439.    4.10 1.74341 -0.0001
  0.2988   2410.    4.15 1.74338 -0.0001
  0.2952   2381.    4.20 1.74334 -0.0001
  0.2917   2353.    4.25 1.74331 -0.0001
  0.2883   2326.    4.30 1.74327 -0.0001
  0.2850   2299.    4.35 1.74324 -0.0001
  0.2818   2273.    4.40 1.74321 -0.0001
  0.2786   2247.    4.45 1.74317 -0.0001
  0.2755   2222.    4.50 1.74314 -0.0001
  0.2725   2198.    4.55 1.74311 -0.0001
  0.2695   2174.    4.60 1.74308 -0.0001
  0.2666   2151.    4.65 1.74305 -0.0001
  0.2638   2128.    4.70 1.74302 -0.0001
  0.2610   2105.    4.75 1.74298 -0.0001
  0.2583   2083.    4.80 1.74295 -0.0001
  0.2556   2062.    4.85 1.74292 -0.0001
  0.2530   2041.    4.90 1.74289 -0.0001
  0.2505   2020.    4.95 1.74286 -0.0001
  0.2480   2000.     5.0 1.74283 -0.0001
  0.2431   1961.     5.1 1.74277 -0.0001
  0.2384   1923.     5.2 1.74271 -0.0001
  0.2339   1887.     5.3 1.74265 -0.0001
  0.2296   1852.     5.4 1.74260 -0.0001
  0.2254   1818.     5.5 1.74254 -0.0001
  0.2214   1786.     5.6 1.74248 -0.0001
  0.2175   1754.     5.7 1.74242 -0.0001
  0.2138   1724.     5.8 1.74236 -0.0001
  0.2101   1695.     5.9 1.74231 -0.0001
  0.2066   1667.     6.0 1.74225 -0.0001
  0.2033   1639.     6.1 1.74219 -0.0001
  0.2000   1613.     6.2 1.74213 -0.0001
  0.1968   1587.     6.3 1.74207 -0.0001
  0.1937   1563.     6.4 1.74202 -0.0001
  0.1908   1538.     6.5 1.74196 -0.0001
  0.1879   1515.     6.6 1.74190 -0.0001
  0.1851   1493.     6.7 1.74184 -0.0001
  0.1823   1471.     6.8 1.74178 -0.0001
  0.1797   1449.     6.9 1.74172 -0.0001
  0.1771   1429.     7.0 1.74166 -0.0001
  0.1746   1408.     7.1 1.74160 -0.0001
  0.1722   1389.     7.2 1.74154 -0.0001
  0.1698   1370.     7.3 1.74147 -0.0001
  0.1675   1351.     7.4 1.74141 -0.0001
  0.1653   1333.     7.5 1.74135 -0.0001
  0.1631   1316.     7.6 1.74129 -0.0001
  0.1610   1299.     7.7 1.74122 -0.0001
  0.1590   1282.     7.8 1.74116 -0.0001
  0.1569   1266.     7.9 1.74109 -0.0001
  0.1550   1250.     8.0 1.74103 -0.0001
  0.1531   1235.     8.1 1.74096 -0.0001
  0.1512   1220.     8.2 1.74090 -0.0001
  0.1494   1205.     8.3 1.74083 -0.0001
  0.1476   1190.     8.4 1.74076 -0.0001
  0.1459   1176.     8.5 1.74069 -0.0001
  0.1442   1163.     8.6 1.74063 -0.0001
  0.1425   1149.     8.7 1.74056 -0.0001
  0.1409   1136.     8.8 1.74049 -0.0001
  0.1393   1124.     8.9 1.74042 -0.0001
  0.1378   1111.     9.0 1.74034 -0.0001
  0.1362   1099.     9.1 1.74027 -0.0001
  0.1348   1087.     9.2 1.74020 -0.0001
  0.1333   1075.     9.3 1.74013 -0.0001
  0.1319   1064.     9.4 1.74005 -0.0001
  0.1305   1053.     9.5 1.73998 -0.0001
  0.1292   1042.     9.6 1.73990 -0.0001
  0.1278   1031.     9.7 1.73983 -0.0001
  0.1265   1020.     9.8 1.73975 -0.0001
  0.1252   1010.     9.9 1.73967 -0.0001
  0.1240   1000.    10.0 1.73960 -0.0001
  0.1216   980.4    10.2 1.73944 -0.0001
  0.1192   961.5    10.4 1.73928 -0.0001
  0.1170   943.4    10.6 1.73911 -0.0001
  0.1148   925.9    10.8 1.73895 -0.0001
  0.1127   909.1    11.0 1.73878 -0.0001
  0.1107   892.9    11.2 1.73861 -0.0001
  0.1088   877.2    11.4 1.73843 -0.0001
  0.1069   862.1    11.6 1.73826 -0.0001
  0.1051   847.5    11.8 1.73808 -0.0001
  0.1033   833.3    12.0 1.73789 -0.0001
  0.1016   819.7    12.2 1.73771 -0.0001
 0.09999   806.5    12.4 1.73752 -0.0001
 0.09840   793.7    12.6 1.73732 -0.0001
 0.09686   781.3    12.8 1.73713 -0.0001
 0.09537   769.2    13.0 1.73693 -0.0001
 0.09393   757.6    13.2 1.73673 -0.0001
 0.09253   746.3    13.4 1.73653 -0.0001
 0.09117   735.3    13.6 1.73632 -0.0001
 0.08984   724.6    13.8 1.73611 -0.0001
 0.08856   714.3    14.0 1.73589 -0.0001
 0.08731   704.2    14.2 1.73568 -0.0001
 0.08610   694.4    14.4 1.73546 -0.0001
 0.08492   684.9    14.6 1.73524 -0.0001
 0.08377   675.7    14.8 1.73501 -0.0001
 0.08266   666.7    15.0 1.73478 -0.0001
 0.08157   657.9    15.2 1.73455 -0.0001
 0.08051   649.4    15.4 1.73431 -0.0001
 0.07948   641.0    15.6 1.73408 -0.0001
 0.07847   632.9    15.8 1.73383 -0.0001
 0.07749   625.0    16.0 1.73359 -0.0001
 0.07653   617.3    16.2 1.73334 -0.0001
 0.07560   609.8    16.4 1.73309 -0.0001
 0.07469   602.4    16.6 1.73284 -0.0001
 0.07380   595.2    16.8 1.73258 -0.0001
 0.07293   588.2    17.0 1.73232 -0.0001
 0.07208   581.4    17.2 1.73206 -0.0001
 0.07126   574.7    17.4 1.73179 -0.0001
 0.07045   568.2    17.6 1.73152 -0.0001
 0.06965   561.8    17.8 1.73124 -0.0001
 0.06888   555.6    18.0 1.73097 -0.0001
 0.06812   549.5    18.2 1.73069 -0.0001
 0.06738   543.5    18.4 1.73041 -0.0001
 0.06669   537.6    18.6 1.73012 -0.0001
 0.06596   531.9    18.8 1.72983 -0.0001
 0.06526   526.3    19.0 1.72954 -0.0001
 0.06458   520.8    19.2 1.72924 -0.0001
 0.06391   515.5    19.4 1.72894 -0.0001
 0.06326   510.2    19.6 1.72864 -0.0001
 0.06262   505.1    19.8 1.72833 -0.0001
 0.06199   500.0    20.0 1.72802 -0.0001
 0.06048   487.8    20.5 1.72723 -0.0001
 0.05904   476.2    21.0 1.72642 -0.0001
 0.05767   465.1    21.5 1.72559 -0.0001
 0.05636   454.5    22.0 1.72474 -0.0001
 0.05510   444.4    22.5 1.72387 -0.0001
 0.05391   434.8    23.0 1.72298 -0.0001
 0.05276   425.5    23.5 1.72206 -0.0001
