;UO 
;UO LiF.ASC: Values of n and k for cubic lithium fluoride from various
;UO references in HOCI (pg. 680) & HOCII (pg. 12).  References are
;UO A, 1, 2, 3, 4, 6, 7, 8, 11, 12, 13, 14, 18, 19, 21, 23, 24, 26. 
;UO 
;UO Copyright (c) 1995 by the Optical Society of America.  Some data
;UO from HANDBOOK OF OPTICAL CONSTANTS IN SOLIDS edited by Edward D.
;UO Palik. Copyright (c) 1985 by Academic Press, Inc. Reproduced by
;UO permission of the publisher.
;UO --------------------------------------------------------------    
;UO   eV    cm-1       um           n            k         
;UO --------------------------------------------------------------
;N  5
;L  Energy[eV]  Wavelength[cm-1]  Wavelength[um]  n  k  
 10000.0 80655000 0.0001240 0.9999949 1.48E-08
  9772.4 78819000 0.0001269 0.9999947 1.63E-08
  9549.9 77025000 0.0001298 0.9999944 1.79E-08
  9332.5 75271000 0.0001329 0.9999942 1.97E-08
  9120.1 73558000 0.0001359 0.9999939 2.16E-08
  8912.5 71884000 0.0001391 0.9999936 2.38E-08
  8709.6 70247000 0.0001424 0.9999933 2.61E-08
  8511.4 68649000 0.0001457 0.9999930 2.87E-08
  8317.6 67086000 0.0001491 0.9999926 3.16E-08
  8128.3 65559000 0.0001525 0.9999923 3.47E-08
  7943.3 64067000 0.0001561 0.9999919 3.81E-08
  7762.5 62608000 0.0001597 0.9999915 4.19E-08
  7585.8 61183000 0.0001634 0.9999911 4.60E-08
  7413.1 59790000 0.0001673 0.9999907 5.05E-08
  7244.4 58430000 0.0001711 0.9999903 5.55E-08
  7079.5 57100000 0.0001751 0.9999898 6.09E-08
  6918.3 55800000 0.0001792 0.9999893 6.69E-08
  6760.8 54529000 0.0001834 0.9999889 7.35E-08
  6606.9 53288000 0.0001877 0.9999883 8.06E-08
  6456.5 52075000 0.0001920 0.9999877 8.85E-08
  6309.6 50890000 0.0001965 0.9999872 9.71E-08
  6166.0 49732000 0.0002011 0.9999865 1.07E-07
  6025.6 48599000 0.0002058 0.9999859 1.17E-07
  5888.4 47493000 0.0002106 0.9999852 1.28E-07
  5754.4 46412000 0.0002155 0.9999846 1.41E-07
  5623.4 45356000 0.0002205 0.9999838 1.54E-07
  5495.4 44323000 0.0002256 0.9999831 1.69E-07
  5370.3 43314000 0.0002309 0.9999822 1.86E-07
  5248.1 42329000 0.0002362 0.9999814 2.04E-07
  5128.6 41365000 0.0002418 0.9999805 2.24E-07
  5011.9 40423000 0.0002474 0.9999796 2.45E-07
  4897.8 39503000 0.0002531 0.9999786 2.69E-07
  4786.3 38604000 0.0002590 0.9999776 2.95E-07
  4677.4 37726000 0.0002651 0.9999765 3.23E-07
  4570.9 36867000 0.0002712 0.9999754 3.54E-07
  4466.8 36027000 0.0002776 0.9999743 3.88E-07
  4365.2 35208000 0.0002840 0.9999730 4.25E-07
  4265.8 34406000 0.0002906 0.9999717 4.66E-07
  4168.7 33623000 0.0002974 0.9999704 5.10E-07
  4073.8 32857000 0.0003043 0.9999689 5.59E-07
  3981.1 32110000 0.0003114 0.9999675 6.12E-07
  3890.5 31379000 0.0003187 0.9999660 6.70E-07
  3801.9 30664000 0.0003261 0.9999643 7.34E-07
  3715.4 29967000 0.0003337 0.9999626 8.03E-07
  3630.8 29284000 0.0003415 0.9999608 8.79E-07
  3548.1 28617000 0.0003494 0.9999590 9.62E-07
  3467.4 27966000 0.0003576 0.9999570 1.05E-06
  3388.4 27329000 0.0003659 0.9999550 1.15E-06
  3311.3 26707000 0.0003744 0.9999529 1.26E-06
  3235.9 26099000 0.0003832 0.9999506 1.38E-06
  3162.3 25506000 0.0003921 0.9999482 1.50E-06
  3090.3 24925000 0.0004012 0.9999458 1.65E-06
  3020.0 24358000 0.0004105 0.9999431 1.80E-06
  2951.2 23803000 0.0004201 0.9999405 1.97E-06
  2884.0 23261000 0.0004299 0.9999376 2.15E-06
  2818.4 22732000 0.0004399 0.0000346 2.35E-06
  2754.2 22214000 0.0004502 0.9999315 2.56E-06
  2691.5 21708000 0.0004607 0.9999282 2.80E-06
  2630.3 21215000 0.0004714 0.9999248 3.06E-06
  2570.4 20732000 0.0004824 0.9999213 3.34E-06
  2511.9 20260000 0.0004936 0.9999175 3.65E-06
  2454.7 19798000 0.0005051 0.9999136 3.98E-06
  2398.8 19348000 0.0005169 0.9999095 4.35E-06
  2344.2 18907000 0.0005289 0.9999051 4.74E-06
  2290.9 18477000 0.0005412 0.9999006 5.18E-06
  2238.7 18056000 0.0005538 0.999896 5.65E-06
  2187.8 17646000 0.0005667 0.999891 6.17E-06
  2138.0 17244000 0.0005799 0.999886 6.73E-06
  2089.3 16851000 0.0005934 0.999880 7.34E-06
  2041.7 16467000 0.0006073 0.999875 8.01E-06
  1995.3 16093000 0.0006214 0.999869 8.73E-06
  1949.8 15726000 0.0006359 0.999862 9.52E-06
  1905.5 15369000 0.0006507 0.999856 1.04E-05
  1862.1 15019000 0.0006658 0.999849 1.13E-05
  1819.7 14677000 0.0006813 0.999842 1.23E-05
  1778.3 14343000 0.0006972 0.999834 1.35E-05
  1737.8 14016000 0.0007135 0.999827 1.47E-05
  1698.2 13697000 0.0007301 0.999819 1.60E-05
  1659.6 13386000 0.0007471 0.999810 1.74E-05
  1621.8 13081000 0.0007645 0.999801 1.90E-05
  1584.9 12783000 0.0007823 0.999792 2.07E-05
  1548.8 12492000 0.0008005 0.999782 2.25E-05
  1513.6 12208000 0.0008191 0.999772 2.46E-05
  1479.1 11930000 0.0008382 0.999762 2.67E-05
  1445.4 11658000 0.0008578 0.999750 2.91E-05
  1412.5 11393000 0.0008778 0.999739 3.17E-05
  1380.4 11134000 0.0008982 0.999727 3.45E-05
  1349.0 10880000 0.0009191 0.999714 3.75E-05
  1318.3 10633000 0.0009405 0.999701 4.08E-05
  1288.2 10390000 0.0009625 0.999688 4.43E-05
  1258.9 10154000 0.0009849 0.999674 4.82E-05
  1230.3 9923000 0.001008 0.999659 5.23E-05
  1202.3 9697200 0.001031 0.999644 5.69E-05
  1174.9 9476200 0.001055 0.999628 6.17E-05
  1148.2 9260800 0.001080 0.999612 6.70E-05
  1122.0 9049500 0.001105 0.999595 7.28E-05
  1096.5 8843800 0.001131 0.999578 7.90E-05
  1071.5 8642200 0.001157 0.999560 8.57E-05
  1047.1 8445400 0.001184 0.999541 9.30E-05
  1023.3 8253400 0.001212 0.999522 1.01E-04
  1000.0 8065500 0.001240 0.999502 1.10E-04
   977.2 7881600 0.001269 0.999483 1.19E-04
   955.0 7702600 0.001298 0.999462 1.29E-04
   933.3 7527500 0.001328 0.999442 1.40E-04
   912.0 7355700 0.001359 0.999421 1.51E-04
   891.3 7188800 0.001391 0.999400 1.64E-04
   871.0 7025100 0.001423 0.999380 1.77E-04
   851.1 6864500 0.001457 0.999359 1.91E-04
   831.8 6798900 0.001491 0.999340 2.07E-04
   812.8 6555600 0.001525 0.999322 2.24E-04
   794.3 6406400 0.001561 0.999306 2.42E-04
   776.3 6261200 0.001597 0.999294 2.61E-04
   758.6 6118500 0.001634 0.999286 2.83E-04
   741.3 5979000 0.001673 0.999288 3.06E-04
   724.4 5842600 0.001712 0.999310 3.30E-04
   708.0 5710400 0.001751 0.999394 3.57E-04
   691.8 5579700 0.001792 0.999465 2.56E-05
   676.1 5453100 0.001834 0.999278 2.82E-05
   660.7 5328900 0.001877 0.999180 3.11E-05
   645.7 5207900 0.001920 0.999102 3.43E-05
   631.0 5089300 0.001965 0.999031 3.78E-05
   616.6 4973200 0.002011 0.99896 4.16E-05
   602.6 4860300 0.002057 0.99889 4.56E-05
   588.8 4749000 0.002106 0.99883 4.99E-05
   575.4 4640900 0.002155 0.99876 5.47E-05
   562.3 4535200 0.002205 0.99868 5.99E-05
   549.5 4432000 0.002256 0.99861 6.55E-05
   537.0 4331200 0.002309 0.99853 7.16E-04
   525.4 4237600 0.00236 0.99886 1.1E-04
   524.8 4232800 0.002363 0.99845 7.83E-05
   512.9 4136800 0.002417 0.99837 8.56E-05
   501.2 4042400 0.002474 0.99828 9.35E-05
   489.8 3950500 0.002531 0.99819 1.02E-04
   478.6 3860100 0.002591 0.99810 1.12E-04
   467.7 3772200 0.002651 0.99800 1.22E-04
   457.1 3686700 0.002712 0.99790 1.34E-04
   446.7 3602900 0.002776 0.99779 1.46E-04
   436.5 3520600 0.002840 0.99768 1.60E-04
   426.6 3440700 0.002906 0.99756 1.75E-04
   416.9 3362500 0.002974 0.99743 1.91E-04
   407.4 3285900 0.003043 0.99731 2.09E-04
   398.1 3210900 0.003114 0.99717 2.29E-04
   394.9 3185100 0.00314 0.99814 2.0E-04
   389.0 3137500 0.003187 0.99703 2.50E-04
   380.2 3066500 0.003261 0.99688 2.73E-04
   371.5 2996300 0.003337 0.99673 2.96E-04
   363.1 2928600 0.003415 0.99657 3.22E-04
   354.8 2861600 0.003494 0.99640 3.51E-04
   346.7 2796300 0.003576 0.99622 3.81E-04
   338.8 2732600 0.003660 0.99603 4.15E-04
   331.1 2670500 0.003745 0.99584 4.51E-04
   323.6 2610000 0.003831 0.99563 4.91E-04
   316.2 2550300 0.003921 0.99542 5.34E-04
   309.0 2492200 0.004012 0.99520 5.81E-04
   302.0 2435800 0.004105 0.99496 6.32E-04
   295.1 2380100 0.004201 0.99472 6.86E-04
   288.4 2326100 0.004299 0.99446 7.45E-04
   281.8 2272900 0.00440 0.99592 8.9E-04
   281.8 2272900 0.004400 0.99419 8.09E-04
   275.4 2221200 0.004502 0.99391 8.78E-04
   269.1 2170400 0.004607 0.99362 9.52E-04
   263.0 2121200 0.004714 0.99331 1.03E-03
   257.0 2072800 0.004824 0.99299 1.12E-03
   251.2 2026100 0.004936 0.99265 1.21E-03
   245.5 1980100 0.005050 0.99229 1.32E-03
   239.9 1934900 0.005168 0.99192 1.43E-03
   234.4 1890600 0.005289 0.99154 1.55E-03
   229.1 1847800 0.005412 0.99113 1.68E-03
   223.9 1805900 0.005537 0.99071 1.82E-03
     220 1774400 0.005636 -0.0001 1.26E-03
   218.8 1764700 0.005667 0.99027 1.97E-03
   213.8 1724400 0.005799  0.9898 2.13E-03
     210 1693800 0.005904 -0.0001 1.83E-03
   208.9 1684900 0.005935  0.9893 2.31E-03
   204.2 1647000 0.006072  0.9888 2.50E-03
     200 1613100 0.006199 -0.0001 2.12E-03
   199.5 1609100 0.006215  0.9883 2.71E-03
   195.0 1572800 0.006358  0.9878 2.93E-03
   190.6 1537300 0.006505  0.9872 3.17E-03
     190 1532400 0.006526 -0.0001 2.70E-03
   186.2 1501800 0.006659  0.9866 3.43E-03
     185 1492100 0.00670 0.99180 3.12E-03
   182.0 1467900 0.006812  0.9860 3.71E-03
     180 1451800 0.006888 -0.0001 3.29E-03
   177.8 1434000 0.006973  0.9853 4.01E-03
   173.8 1401800 0.007134  0.9847 4.33E-03
     170 1371100 0.007293 -0.0001 4.06E-03
   169.8 1369500 0.007302  0.9840 4.68E-03
   166.0 1338900 0.007469  0.9832 5.06E-03
   162.2 1308200 0.007644  0.9825 5.46E-03
     160 1290500 0.007749 -0.0001 4.75E-03
   158.5 1278400 0.007822  0.9817 5.90E-03
   154.9 1249300 0.008004  0.9809 6.37E-03
   151.4 1221100 0.008189  0.9800 6.87E-03
     150 1209800 0.008265 -0.0001 5.79E-03
   147.9 1192900 0.008383  0.9791 7.41E-03
   144.5 1165500 0.008580  0.9782 8.00E-03
   141.3 1139700 0.008775  0.9772 8.63E-03
     140 1129200 0.008856 -0.0001 7.05E-03
   138.0 1113000 0.008984  0.9763 9.32E-03
   134.9 1088000 0.009191  0.9752 1.01E-02
   131.8 1063000 0.009407  0.9742 1.09E-02
     130 1048500 0.009537 -0.0001 8.56E-03
   128.8 1038800 0.009626  0.9731 1.17E-02
   125.9 1015400 0.009848  0.9720 1.26E-02
   123.0  992060 0.01008  0.9709 1.36E-02
   120.2  969470 0.01031  0.9697 1.46E-02
     120  967860 0.01033 -0.0001 1.16E-02
   117.5  947700 0.01055  0.9685 1.57E-02
   114.8  925920 0.01080  0.9672 1.69E-02
   112.2  904950 0.01105  0.9659 1.82E-02
     110  887210 0.01127 -0.0001 1.44E-02
   109.7  884790 0.01130  0.9646 1.95E-02
   109.7  884790  0.0113 0.98330 1.17E-02
   107.2  864620 0.01157  0.9631 2.10E-02
   104.7  844460 0.01184  0.9616 2.27E-02
   102.3  825100 0.01212  0.9601 2.45E-02
   100.0  806550 0.01240  0.9588 2.67E-02
     100  806550 0.01240 -0.0001 1.94E-02
    97.7  788000 0.01269  0.9575 2.88E-02
    97.5  786390 0.01272 -0.0001 2.00E-02
    95.5  770260 0.01298  0.9562 3.12E-02
      95  766220 0.01305 -0.0001 1.96E-02
    93.3  752510 0.01329  0.9550 3.37E-02
    92.5  746060 0.01340 -0.0001 2.06E-02
    91.2  745570 0.01359  0.9542 3.65E-02
      90  725900 0.01378 -0.0001 2.28E-02
    89.1  718640 0.01392  0.9536 3.92E-02
    87.5  705730 0.01417 -0.0001 2.40E-02
    87.1  702510 0.01423  0.9531 4.16E-02
    85.1  686370 0.01457  0.9526 4.39E-02
      85  685570 0.01459 -0.0001 2.48E-02
    83.2  671050 0.01490  0.9518 4.63E-02
    82.5  665400 0.01503 -0.0001 2.62E-02
    81.3  655730 0.01525  0.9511 4.88E-02
      80  645240 0.01550 -0.0001 2.64E-02
    79.4  640400 0.01562  0.9503 5.12E-02
    77.6  625880 0.01598  0.9492 5.38E-02
    77.5  625080 0.01600 -0.0001 2.61E-02
    75.9  612170 0.01634  0.9479 5.67E-02
      75  604910 0.01653 -0.0001 2.63E-02
    74.1  597650 0.01673  0.9466 6.00E-02
    72.5  584750 0.01710 -0.0001 2.86E-02
    72.4  583940 0.01712  0.9453 6.39E-02
    70.8  571040 0.01751  0.9444 6.84E-02
      70  564590 0.01771 -0.0001 3.81E-02
    69.2  558130 0.01792  0.9438 7.35E-02
    67.6  545230 0.01834  0.9444 7.96E-02
    67.5  544420 0.01837 -0.0001 4.22E-02
    66.1  533130 0.01876  0.9464 8.48E-02
      65  524260 0.01907 -0.0001 4.16E-02
    64.6  521030 0.01919  0.9492 8.97E-02
    63.1  508930 0.01965  0.9525 9.35E-02
    62.5  504090 0.01984 -0.0001 7.74E-02
    61.7  497640 0.02009  0.9558 9.65E-02
    60.3  486350 0.02056  0.9593 9.94E-02
      60  483930 0.02066 -0.0001 3.78E-02
      60  483930 0.02066 -0.0001 6.74E-02
    58.9  475060 0.02105  0.9632   0.102
    57.5  463770 0.02156  0.9680   0.103
    57.5  463770 0.02156 -0.0001 6.52E-02
    57.5  463770 0.02156 -0.0001 3.26E-02
    56.2  453280 0.02206  0.9738   0.104
    55.0  443600 0.02254  0.9891   0.104
      55  443600 0.02254 -0.0001 5.92E-02
    53.7  433120 0.02309  0.9741 8.02E-02
    52.5  423440 0.02362  0.9650 8.37E-02
    52.5  423440 0.02362 -0.0001 6.77E-02
    51.3  413760 0.02417  0.9600 8.74E-02
      50  403280 0.02480 -0.0001 7.89E-02
    47.5  383110 0.02610 -0.0001 8.72E-02
      45  362950 0.02755 -0.0001   0.123
    42.5  342780 0.02917 -0.0001   0.130
      40  322620 0.03100 -0.0001   0.133
    37.5  302460 0.03306 -0.0001   0.142
      35  282290 0.03542 -0.0001   0.158
    32.5  262130 0.03815 -0.0001   0.173
      30  241980 0.04133   0.869   0.184
      30  241980 0.04133 -0.0001   0.367
      29  233900 0.04275   0.861   0.376
      29  233900 0.04275 -0.0001   0.180
      28  225830 0.04428   0.844   0.176
      28  225830 0.04428 -0.0001   0.363
      27  217770 0.04592   0.749   0.401
      27  217770 0.04592 -0.0001   0.194
      26  209700 0.04769   0.662   0.296
      26  209700 0.04769 -0.0001   0.467
      25  201640 0.04959   0.558   0.521
      25  201640 0.04959 -0.0001   0.434
      25  201640 0.04959    0.47    0.23
    24.5  197600 0.05061    0.44    0.31
      24  193570 0.05166    0.43    0.42
    23.7  191150 0.05231    0.42    0.50
    23.6  190350 0.05254    0.43    0.56
    23.4  188730 0.05299    0.43    0.59
    23.3  187930 0.05321    0.44    0.62
    23.2  187120 0.05344    0.45    0.66
    23.1  186310 0.05367    0.46    0.70
   23.05  185910 0.05379    0.47    0.72
      23  185510 0.05391    0.48    0.74
   22.95  185100 0.05402    0.50    0.76
    22.9  184700 0.05414    0.51    0.78
    22.8  183890 0.05438    0.55    0.81
    22.6  182280 0.05486    0.62    0.87
    22.4  180670 0.05535    0.70    0.91
    22.2  179050 0.05585    0.80    0.94
      22  177440 0.05636    0.91    0.93
    21.8  175830 0.05687    0.99    0.88
    21.6  174210 0.05740    1.04    0.84
    21.4  172600 0.05794    1.08    0.80
      21  169380 0.05904    1.14    0.73
    20.5  165340 0.06048    1.18    0.65
      20  161310 0.06199    1.20    0.58
    19.5  157280 0.06358    1.21    0.53
      19  153240 0.06526    1.19    0.47
    18.6  150020 0.06666    1.17    0.44
    18.5  149210 0.06702    1.15    0.44
    18.4  148410 0.06738    1.14    0.44
    18.3  147600 0.06775    1.13    0.45
      18  145180 0.06888    1.11    0.48
    17.7  142760 0.07005    1.13    0.52
    17.6  141950 0.07045    1.14    0.52
    17.5  141150 0.07085    1.16    0.53
    17.4  140340 0.07126    1.18    0.52
    17.3  139530 0.07167    1.19    0.51
    16.9  136310 0.07336    1.20    0.47
    16.4  132270 0.07560    1.16    0.40
    16.2  130660 0.07653    1.12    0.39
    16.1  129850 0.07701    1.09    0.39
      16  129050 0.07749    1.06    0.41
    15.9  128240 0.07798    1.02    0.42
    15.8  127430 0.07847    0.99    0.47
    15.7  126630 0.07897    0.98    0.52
    15.5  125020 0.07999    1.00    0.59
    15.3  123400 0.08104    1.04    0.64
    15.1  121790 0.08211    1.08    0.68
    14.9  120180 0.08321    1.12    0.71
    14.7  118560 0.08434    1.17    0.73
    14.6  117760 0.08492    1.19    0.74
    14.5  116950 0.08551    1.22    0.74
    14.4  116140 0.08610    1.25    0.73
    14.3  115340 0.08670    1.27    0.72
    14.2  114530 0.08731    1.30    0.71
    14.1  113720 0.08793    1.32    0.68
      14  112920 0.08856    1.32    0.64
   13.95  112510 0.08889    1.32    0.62
    13.9  112110 0.08920    1.32    0.59
   13.85  111710 0.08952    1.31    0.56
    13.8  111300 0.08984    1.29    0.52
   13.75  110900 0.09017    1.24    0.46
    13.7  110500 0.09050    1.15    0.42
   13.65  110090 0.09083    1.05    0.43
    13.6  109690 0.09117    0.95    0.50
   13.55  109290 0.09150    0.88    0.58
    13.5  108880 0.09184    0.84    0.67
   13.45  108480 0.09218    0.82    0.76
    13.4  108080 0.09253    0.81    0.84
   13.35  107670 0.09287    0.80    0.92
    13.3  107270 0.09322    0.80    1.01
   13.25  106870 0.09357    0.80    1.10
    13.2  106460 0.09393    0.81    1.20
   13.15  106060 0.09429    0.84    1.33
    13.1  105660 0.09465    0.91    1.43
   13.05  105250 0.09501    0.97    1.53
      13  104850 0.09537    1.04    1.64
   12.95  104450 0.09574    1.13    1.77
    12.9  104040 0.09611    1.26    1.90
   12.85  103640 0.09649    1.42    2.02
    12.8  103240 0.09686    1.64    2.13
   12.75  102840 0.09724    1.92    2.20
    12.7  102430 0.09763    2.24    2.19
   12.65  102030 0.09801    2.57    2.08
    12.6  101630 0.09840    2.89    1.90
    12.5  100820 0.09919    3.34    1.17
    12.4  100010 0.09999    2.93    0.48
    12.3   99210  0.1008    2.68    0.33
    12.2   98400  0.1016    2.51    0.23
    12.2   98400  0.1016 -0.0001 2.42E-03
    12.1   97590  0.1025 -0.0001 4.89E-04
    12.0   96790  0.1033    2.28    0.11
    12.0   96780  0.1033 -0.0001 9.86E-05
    11.9   95980  0.1042 -0.0001 2.32E-05
   11.88   95830 0.10435   2.003 -0.0001
   11.85   95560 0.10465   1.985 -0.0001
    11.8   95170  0.1051 -0.0001 4.18E-06
   11.78   95010 0.10525   1.951 -0.0001
   11.75   94770  0.1055    2.08   4E-02
   11.75   94770 0.10552   1.937 -0.0001
   11.70   94340 0.10600   1.914 1.60E-06
    11.6   93560  0.1069 -0.0001 1.10E-06
   11.59   93500 0.10695   1.875 -0.0001
   11.50   92750 0.10781   1.844 -0.0001
    11.5   92750  0.1078    1.94 9.44E-07
   11.46   92460 0.10815   1.833 -0.0001
    11.4   91950  0.1088 -0.0001 8.40E-07
   11.33   91410 0.10940   1.798 -0.0001
    11.3   91140  0.1097 -0.0001 8.29E-07
   11.25   90740  0.1102    1.84 -0.0001
   11.24   90700 0.11025   1.777 -0.0001
    11.2   90330  0.1107 -0.0001 8.37E-07
   11.13   89750 0.11142   1.751 -0.0001
    11.1   89530  0.1117 -0.0001 8.62E-07
   11.01   88770 0.11265   1.729 -0.0001
    11.0   88720  0.1127    1.77 8.07E-07
   11.00   88720 0.11271   1.728 -0.0001
   10.82   87300 0.11455   1.699 -0.0001
    10.8   87110  0.1148 -0.0001 8.22E-07
   10.66   86020 0.11625   1.677 -0.0001
    10.6   85490  0.1170 -0.0001 8.19E-07
   10.52   84850 0.11785   1.659 -0.0001
   10.50   84690 0.11808   1.656 -0.0001
    10.5   84690  0.1181    1.67 -0.0001
    10.4   83880  0.1192 -0.0001 8.06E-07
   10.35   83470 0.11980   1.639 -0.0001
   10.20   82280 0.12153   1.624 7.74E-07
   10.09   81400 0.12285   1.614 -0.0001
   10.00   80650 0.12398   1.606 7.70E-07
   10.00   80650 0.12398    1.60 -0.0001
   9.927   80060 0.12490   1.599 -0.0001
   9.717   78370 0.12760   1.583 -0.0001
   9.526   76830 0.13015   1.569 -0.0001
   9.357   75470 0.13250   1.558 -0.0001
   9.184   74070 0.13500   1.548 -0.0001
   9.004   72620 0.13770   1.538 -0.0001
     9.0   72590  0.1378    1.53 -0.0001
   8.856   71430 0.14000   1.530 -0.0001
   8.551   68970 0.14500   1.515 -0.0001
   8.266   66670 0.15000   1.503 -0.0001
     8.0   64520 0.15500   1.493 -0.0001
     8.0   64520 0.15500    1.49 -0.0001
   7.749   62500 0.16000   1.484 -0.0001
   7.293   58820 0.17000   1.469 -0.0001
     7.0   56460  0.1771    1.46 -0.0001
   7.000   56460 0.17712   1.461 -0.0001
   6.888   55560 0.18000   1.458 -0.0001
   6.888   55560  0.1800  1.4533 -0.0001
   6.812   54950   0.182  1.4516 -0.0001
   6.738   54350   0.184  1.4500 -0.0001
   6.666   53760   0.186  1.4484 -0.0001
   6.595   53190   0.188  1.4469 -0.0001
   6.526   52640   0.190  1.4455 -0.0001
   6.526   52640   0.190   1.449 -0.0001
   6.458   52080   0.192  1.4441 -0.0001
   6.391   51550   0.194  1.4428 -0.0001
   6.326   51020   0.196  1.4415 -0.0001
   6.262   50510   0.198  1.4403 -0.0001
   6.199   50000   0.200  1.4391 -0.0001
   6.199   50000   0.200   1.441 -0.0001
   6.048   48780   0.205  1.4363 -0.0001
