;UO 
;UO MgF2.ASC: Values of n and k for tetragonal magnesium fluoride
;UO from various references in HOCII (pg. 908). References are 12,
;UO 19, 20, 21, 22, 23, 27, 47, 49, 51.
;UO 
;UO From HANDBOOK OF OPTICAL CONSTANTS IN SOLIDS II edited by Edward D.
;UO Palik. Copyright (c) 1991 by Academic Press, Inc. Reproduced by
;UO permission of the publisher.
;UO --------------------------------------------------------------- 
;UO  eV      cm-1       um       n         k        n        k 
;UO ---------------------------------------------------------------	
;N  7
;L  Energy[eV]  Wavelength[cm-1]  Wavelength[um]  n  k  n  k  
    83.0 669608.  0.0149   0.906  4.6E-2 -0.0001 -0.0001
    78.5 633511.  0.0158   0.912  7.0E-2 -0.0001 -0.0001
    76.9 620336.  0.0161   0.906  6.4E-2 -0.0001 -0.0001
    75.5 608714.  0.0164   0.906  8.1E-2 -0.0001 -0.0001
    74.2 598809.  0.0167   0.902  8.3E-2 -0.0001 -0.0001
    72.3 583074.  0.0172   0.918  9.5E-2 -0.0001 -0.0001
    68.5 552191.  0.0181   0.902  5.5E-2 -0.0001 -0.0001
    66.0 532322.  0.0188   0.915  7.3E-2 -0.0001 -0.0001
    65.0 524256.  0.0191   0.917  7.6E-2 -0.0001 -0.0001
    64.0 516191.  0.0194   0.919  7.9E-2 -0.0001 -0.0001
    63.0 508125.  0.0197   0.921  8.3E-2 -0.0001 -0.0001
    62.0 500060.  0.0200   0.923  9.0E-2 -0.0001 -0.0001
    61.0 491994.  0.0203   0.924  9.5E-2 -0.0001 -0.0001
    60.0 483929.  0.0207   0.926  9.6E-2 -0.0001 -0.0001
    59.0 475863.  0.0210   0.926  9.3E-2 -0.0001 -0.0001
    58.0 467798.  0.0214   0.925  9.0E-2 -0.0001 -0.0001
    57.0 459732.  0.0218   0.925  9.2E-2 -0.0001 -0.0001
    56.0 451667.  0.0221   0.913  9.4E-2 -0.0001 -0.0001
    55.0 443601.  0.0225   0.936   0.165 -0.0001 -0.0001
    54.0 435536.  0.0230   0.940   0.103 -0.0001 -0.0001
    53.0 427470.  0.0234   0.934  9.8E-2 -0.0001 -0.0001
    52.0 419405.  0.0238   0.930  9.8E-2 -0.0001 -0.0001
    51.0 411339.  0.0243   0.927   0.100 -0.0001 -0.0001
    50.0 403274.  0.0248   0.925   0.103 -0.0001 -0.0001
    49.0 395209.  0.0253   0.922   0.107 -0.0001 -0.0001
    48.0 387143.  0.0258   0.920   0.111 -0.0001 -0.0001
    47.5 383110.  0.0261   0.920   0.113   0.957  9.2E-2
    47.0 379078.  0.0264   0.919   0.115   0.956  9.6E-2
    46.5 375045.  0.0267   0.919   0.118   0.955  9.9E-2
    46.0 371012.  0.0270   0.919   0.120   0.954   0.103
    45.5 366979.  0.0272   0.918   0.122   0.952   0.107
    45.0 362947.  0.0276   0.918   0.125   0.949   0.110
    44.5 358914.  0.0279   0.918   0.128   0.949   0.114
    44.0 354881.  0.0282   0.918   0.131   0.947   0.119
    43.5 350848.  0.0285   0.918   0.134   0.942   0.125
    43.0 346816.  0.0288   0.918   0.137   0.936   0.130
    42.5 342783.  0.0292   0.918   0.142   0.929   0.129
    42.0 338750.  0.0295   0.918   0.145   0.922   0.129
    41.5 334717.  0.0299   0.918   0.150   0.914   0.129
    41.0 330685.  0.0302   0.919   0.154   0.907   0.131
    40.5 326652.  0.0306   0.919   0.159   0.899   0.139
    40.0 322619.  0.0310   0.919   0.163   0.885   0.149
    39.5 318586.  0.0314   0.919   0.167   0.894   0.158
    39.0 314554.  0.0318   0.920   0.171   0.894   0.169
    38.5 310521.  0.0322   0.921   0.172   0.898   0.170
    38.0 306488.  0.0326   0.922   0.173   0.902   0.168
    37.5 302456.  0.0331   0.923   0.174   0.901   0.165
    37.0 298423.  0.0335   0.924   0.175   0.900   0.162
    36.5 294390.  0.0340   0.921   0.175   0.899   0.160
    36.0 290357.  0.0344   0.925   0.175   0.896   0.159
    35.5 286325.  0.0349   0.925   0.175   0.897   0.159
    35.0 282292.  0.0354   0.925   0.175   0.898   0.162
    34.5 278259.  0.0359   0.918   0.177   0.899   0.166
    34.0 274226.  0.0365   0.904   0.179   0.893   0.176
    33.5 270194.  0.0370   0.898   0.183   0.890   0.188
    33.0 266161.  0.0376   0.893   0.190   0.888   0.206
    32.5 262128.  0.0381   0.891   0.200   0.887   0.224
    32.0 258095.  0.0387   0.897   0.210   0.880   0.221
    31.5 254063.  0.0394   0.904   0.219   0.867   0.199
    31.0 250030.  0.0400   0.910   0.228   0.858   0.200
    30.5 245997.  0.0407   0.910   0.232   0.857   0.235
    30.0 241964.  0.0413   0.907   0.228   0.865   0.283
    29.5 237932.  0.0420   0.898   0.224   0.876   0.273
    29.0 233899.  0.0428   0.885   0.221   0.873   0.184
    28.5 229866.  0.0435   0.875   0.234   0.850   0.164
    28.0 225833.  0.0443   0.865   0.254   0.842   0.200
    27.5 221801.  0.0451   0.855   0.264   0.841   0.232
    27.0 217768.  0.0459   0.842   0.272   0.822   0.227
    26.5 213735.  0.0468   0.824   0.282   0.812   0.246
    26.0 209702.  0.0477   0.805   0.308   0.801   0.267
    25.5 205670.  0.0486   0.789   0.336   0.787   0.294
    25.0 201637.  0.0496   0.779   0.384   0.771   0.324
    24.5 197604.  0.0506   0.769   0.443   0.758   0.361
    24.0 193572.  0.0517   0.788   0.524   0.736   0.410
    23.5 189539.  0.0528   0.816   0.610   0.742   0.445
    23.0 185506.  0.0539   0.856   0.666   0.765   0.475
    22.5 181473.  0.0551   0.900   0.729   0.820   0.546
    22.0 177441.  0.0564   0.946   0.771   0.849   0.564
    21.5 173408.  0.0577   1.012   0.807   0.898   0.624
    21.0 169375.  0.0590   1.102   0.819   0.891   0.616
    20.5 165342.  0.0605   1.184   0.805   0.965   0.643
    20.0 161310.  0.0620   1.266   0.767   0.981   0.646
    19.8 159697.  0.0626 -0.0001 -0.0001   0.995   0.642
    19.6 158083.  0.0633 -0.0001 -0.0001   1.000   0.645
    19.4 156470.  0.0639 -0.0001 -0.0001   0.996   0.615
    19.2 154857.  0.0646 -0.0001 -0.0001   1.001   0.605
    19.0 153244.  0.0653 -0.0001 -0.0001   1.012   0.615
    18.8 151631.  0.0659 -0.0001 -0.0001   1.021   0.618
    18.6 150018.  0.0667 -0.0001 -0.0001   1.034   0.626
    18.4 148405.  0.0674 -0.0001 -0.0001   1.048   0.636
    18.2 146792.  0.0681 -0.0001 -0.0001   1.072   0.661
    18.0 145179.  0.0689   1.322   0.671   1.093   0.651
    17.8 143566.  0.0697   1.337   0.658   1.095   0.654
    17.6 141952.  0.0704   1.347   0.657   1.103   0.661
    17.4 140339.  0.0713   1.356   0.660   1.114   0.660
    17.2 138726.  0.0721   1.359   0.665   1.090   0.665
    17.0 137113.  0.0729   1.354   0.661   1.080   0.663
    16.8 135500.  0.0738   1.348   0.605   1.108   0.670
    16.6 133887.  0.0747   1.346   0.631   1.143   0.676
    16.4 132274.  0.0756   1.369   0.606   1.180   0.689
    16.2 130661.  0.0765   1.387   0.575   1.195   0.664
    16.0 129048.  0.0775   1.435   0.547   1.196   0.639
    15.9 128241.  0.0780   1.449   0.539   1.195   0.630
    15.8 127435.  0.0785   1.457   0.533   1.195   0.625
    15.7 126628.  0.0790   1.465   0.528   1.193   0.623
    15.6 125821.  0.0795   1.474   0.529   1.191   0.620
    15.5 125015.  0.0800   1.483   0.529   1.190   0.617
    15.4 124208.  0.0805   1.490   0.531   1.196   0.623
    15.3 123402.  0.0810   1.495   0.533   1.209   0.631
    15.2 122595.  0.0816   1.500   0.536   1.228   0.635
    15.1 121789.  0.0821   1.505   0.538   1.248   0.638
    15.0 120982.  0.0827   1.508   0.533   1.256   0.630
    14.9 120176.  0.0832   1.510   0.520   1.257   0.622
    14.8 119369.  0.0838   1.512   0.510   1.257   0.614
    14.7 118563.  0.0843   1.513   0.501   1.257   0.608
    14.6 117756.  0.0849   1.508   0.501   1.258   0.602
    14.5 116949.  0.0855   1.498   0.502   1.262   0.600
    14.4 116143.  0.0861   1.488   0.504   1.268   0.596
    14.3 115336.  0.0867   1.481   0.514   1.268   0.595
    14.2 114530.  0.0873   1.470   0.518   1.260   0.598
    14.1 113723.  0.0879   1.473   0.517   1.250   0.602
    14.0 112917.  0.0886   1.496   0.507   1.237   0.607
    13.9 112110.  0.0892   1.520   0.496   1.234   0.607
    13.8 111304.  0.0898   1.541   0.484   1.231   0.608
    13.7 110497.  0.0905   1.561   0.473   1.236   0.605
    13.6 109691.  0.0912   1.573   0.463   1.239   0.606
    13.5 108884.  0.0918   1.584   0.453   1.242   0.606
    13.4 108077.  0.0925   1.588   0.444   1.235   0.603
    13.3 107271.  0.0932   1.585   0.448   1.225   0.594
    13.2 106464.  0.0939   1.562   0.453   1.215   0.585
    13.1 105658.  0.0946   1.555   0.454   1.202   0.577
    13.0 104851.  0.0954   1.561   0.429   1.192   0.568
    12.9 104045.  0.0961   1.566   0.393   1.192   0.553
    12.8 103238.  0.0969   1.579   0.357   1.240   0.530
    12.7 102432.  0.0976   1.574   0.332   1.297   0.526
    12.6 101625.  0.0984   1.501   0.329   1.272   0.558
    12.5 100818.  0.0992   1.409   0.364   1.258   0.593
    12.4 100012.  0.1000   1.330   0.409   1.232   0.636
    12.3  99205.  0.1008   1.269   0.451   1.212   0.676
    12.2  98399.  0.1016   1.231   0.491   1.194   0.717
    12.1  97592.  0.1025   1.207   0.542   1.177   0.758
    12.0  96786.  0.1033   1.351   0.723   1.176   0.790
    11.9  95979.  0.1042   1.603   0.953   1.235   0.828
    11.8  95173.  0.1051   1.759   1.073   1.343   0.834
    11.7  94366.  0.1060   1.872   1.024   1.477   0.831
    11.6  93560.  0.1069   2.201   0.807   1.573   0.822
    11.5  92753.  0.1078   2.258   0.683   1.617   0.826
    11.4  91946.  0.1088   2.245   0.524   1.645   0.793
    11.3  91140.  0.1097   2.219   0.332   1.689   0.640
    11.2  90333.  0.1107   2.123   0.220   1.671   0.478
    11.1  89527.  0.1117   2.010   0.110   1.590   0.341
    11.0  88720.  0.1127   1.956  5.8E-2   1.519   0.197
    10.9  87914.  0.1137   1.904 -0.0001   1.490  2.8E-2
    10.8  87107.  0.1148   1.883 -0.0001   1.480 -0.0001
    10.7  86301.  0.1159   1.812 -0.0001   1.469 -0.0001
    10.6  85494.  0.1170   1.773 -0.0001   1.463 -0.0001
    10.5  84688.  0.1181   1.734 -0.0001   1.459 -0.0001
    10.4  83881.  0.1192   1.694 -0.0001   1.456 -0.0001
    10.3  83074.  0.1204   1.660 -0.0001   1.453 -0.0001
    10.2  82268.  0.1216   1.630 -0.0001   1.449 -0.0001
    10.1  81461.  0.1228   1.615 -0.0001   1.446 -0.0001
    10.0  80655.  0.1240   1.601 -0.0001   1.443 -0.0001
    From HANDBOOK      OF OPTICAL CONSTANTS      IN  SOLIDS
      D.  Palik. Copyright     (c)    1991      by Academic
      eV    cm-1      um      no      ko      ne      ke
    27.0 217768.  0.0459   0.811   0.214   0.832   0.214
    26.5 213735.  0.0468   0.796   0.240   0.816   0.223
    26.0 209702.  0.0477   0.784   0.282   0.803   0.241
    25.5 205670.  0.0486   0.770   0.322   0.790   0.261
    25.0 201637.  0.0496   0.765   0.361   0.794   0.289
    24.5 197604.  0.0506   0.756   0.398   0.799   0.332
    24.0 193572.  0.0517   0.763   0.422   0.807   0.369
    23.5 189539.  0.0528   0.774   0.441   0.816   0.405
    23.0 185506.  0.0539   0.790   0.456   0.827   0.441
    22.5 181473.  0.0551   0.809   0.469   0.837   0.468
    22.0 177441.  0.0564   0.837   0.493   0.847   0.598
    21.5 173408.  0.0577   0.886   0.545   0.866   0.588
    21.0 169375.  0.0590   0.959   0.600   0.881   0.614
    20.5 165342.  0.0605   1.003   0.607   0.894   0.612
    20.0 161310.  0.0620   1.010   0.610   0.905   0.607
    19.5 157277.  0.0636   1.006   0.541   0.919   0.607
    19.0 153244.  0.0653   1.000   0.540   0.983   0.623
    18.5 149211.  0.0670   1.008   0.572   1.117   0.652
    18.0 145179.  0.0689   1.080   0.604   1.151   0.652
    17.5 141146.  0.0708   1.180   0.627   1.264   0.620
    17.0 137113.  0.0729   1.189   0.632   1.317   0.575
    16.5 133080.  0.0751   1.186   0.626   1.353   0.561
    16.0 129048.  0.0775   1.184   0.608   1.416   0.556
    15.5 125015.  0.0800   1.192   0.581   1.513   0.496
    15.0 120982.  0.0827   1.354   0.555   1.387   0.508
    14.5 116949.  0.0855   1.342   0.548   1.299   0.550
    14.0 112917.  0.0886   1.257   0.529   1.272   0.520
    13.5 108884.  0.0918   1.343   0.514   1.348   0.538
    13.0 104851.  0.0954   1.546   0.467   1.449   0.504
    12.8 103238.  0.0969   1.281   0.386   1.423   0.463
    12.6 101625.  0.0984   1.162   0.405   1.419   0.485
    12.4 100012.  0.1000   1.222   0.545   1.470   0.224
    12.2  98399.  0.1016   1.465   0.709   1.346   0.151
    12.0  96786.  0.1033   1.693   0.714   1.223   0.462
    11.8  95173.  0.1051   1.923   0.620   1.343   0.752
    11.6  93560.  0.1069   1.943   0.515   1.636   0.777
    11.4  91946.  0.1088   1.834   0.380   1.911   0.612
    11.2  90333.  0.1107   1.701   0.241   1.988   0.401
    11.0  88720.  0.1127   1.538  6.3E-2   1.931  5.4E-2
    10.9  87914.  0.1137 -0.0001 -0.0001   1.892 -0.0001
    10.8  87107.  0.1148 -0.0001 -0.0001   1.776 -0.0001
  10.781  86957.   0.115   1.714 -0.0001   1.694 -0.0001
    10.7  86301.  0.1159 -0.0001 -0.0001   1.657 -0.0001
  10.332  83333.   0.120   1.626 -0.0001   1.626 -0.0001
  10.230  82508.  0.1212 -0.0001  3.3E-6 -0.0001 -0.0001
   9.919  80000.   0.125   1.588 -0.0001   1.597 -0.0001
   9.537  76923.   0.130   1.555 -0.0001   1.567 -0.0001
   8.856  71429.   0.140   1.513 -0.0001   1.527 -0.0001
   8.266  66667.   0.150   1.484 -0.0001   1.498 -0.0001
   7.749  62500.   0.160   1.464 -0.0001   1.478 -0.0001
   7.293  58824.   0.170   1.451 -0.0001   1.465 -0.0001
   6.965  56180.  0.1780 1.43975 -0.0001 1.45365 -0.0001
   6.888  55556.   0.180   1.440 -0.0001 -0.0001 -0.0001
   6.702  54054.  0.1850 1.43424 -0.0001 1.44797 -0.0001
   6.526  52632.   0.190   1.430 -0.0001 -0.0001 -0.0001
   6.199  50000.   0.200 1.42309 -0.0001 1.43657 -0.0001
   5.904  47619.   0.210 1.41754 -0.0001 1.43085 -0.0001
   5.636  45455.   0.220 1.41291 -0.0001 1.42608 -0.0001
   5.391  43478.   0.230 1.40900 -0.0001 1.42204 -0.0001
   5.166  41667.   0.240 1.40567 -0.0001 1.41859 -0.0001
   4.959  40000.   0.250 1.40280 -0.0001 1.41562 -0.0001
   4.769  38462.   0.260 1.40030 -0.0001 1.41303 -0.0001
   4.592  37037.   0.270 1.39812 -0.0001 1.41077 -0.0001
   4.428  35714.   0.280 1.39620 -0.0001 1.40877 -0.0001
   4.275  34483.   0.290 1.39450 -0.0001 1.40700 -0.0001
   4.133  33333.   0.300 1.39298 -0.0001 1.40543 -0.0001
   4.000  32258.   0.310 1.39162 -0.0001 1.40402 -0.0001
   3.875  31250.   0.320 1.39040 -0.0001 1.40275 -0.0001
   3.757  30303.   0.330 1.38930 -0.0001 1.40160 -0.0001
   3.647  29412.   0.340 1.38830 -0.0001 1.40056 -0.0001
   3.542  28571.   0.350 1.38739 -0.0001 1.39961 -0.0001
   3.444  27778.   0.360 1.38656 -0.0001 1.39875 -0.0001
   3.351  27027.   0.370 1.38580 -0.0001 1.39796 -0.0001
   3.263  26316.   0.380 1.38510 -0.0001 1.39723 -0.0001
   3.179  25641.   0.390 1.38446 -0.0001 1.39656 -0.0001
   3.100  25000.   0.400 1.38387 -0.0001 1.39594 -0.0001
   2.952  23810.   0.420 1.38281 -0.0001 1.39484 -0.0001
   2.818  22727.   0.440 1.38189 -0.0001 1.39389 -0.0001
   2.695  21739.   0.460 1.38110 -0.0001 1.39306 -0.0001
   2.583  20833.   0.480 1.38040 -0.0001 1.39233 -0.0001
   2.480  20000.   0.500 1.37978 -0.0001 1.39168 -0.0001
   2.384  19231.   0.520 1.37923 -0.0001 1.39111 -0.0001
   2.296  18519.   0.540 1.37873 -0.0001 1.39059 -0.0001
   2.214  17857.   0.560 1.37829 -0.0001 1.39013 -0.0001
   2.138  17241.   0.580 1.37789 -0.0001 1.38971 -0.0001
   2.066  16667.   0.600 1.37752 -0.0001 1.38932 -0.0001
   2.000  16129.   0.620 1.37718 -0.0001 1.38897 -0.0001
   1.937  15625.   0.640 1.37688 -0.0001 1.38865 -0.0001
   1.879  15152.   0.660 1.37659 -0.0001 1.38835 -0.0001
   1.823  14706.   0.680 1.37633 -0.0001 1.38808 -0.0001
   1.771  14286.   0.700 1.37608 -0.0001 1.38782 -0.0001
   1.722  13889.   0.720 1.37585 -0.0001 1.38758 -0.0001
   1.675  13514.   0.740 1.37563 -0.0001 1.38735 -0.0001
   1.631  13158.   0.760 1.37543 -0.0001 1.38714 -0.0001
   1.590  12821.   0.780 1.37524 -0.0001 1.38693 -0.0001
   1.550  12500.   0.800 1.37506 -0.0001 1.38674 -0.0001
   1.512  12195.   0.820 1.37488 -0.0001 1.38656 -0.0001
   1.476  11905.   0.840 1.37472 -0.0001 1.38639 -0.0001
   1.442  11628.   0.860 1.37456 -0.0001 1.38622 -0.0001
   1.409  11364.   0.880 1.37440 -0.0001 1.38606 -0.0001
   1.378  11111.   0.900 1.37426 -0.0001 1.38590 -0.0001
   1.348  10870.   0.920 1.37411 -0.0001 1.38575 -0.0001
   1.319  10638.   0.940 1.37398 -0.0001 1.38561 -0.0001
   1.292  10417.   0.960 1.37384 -0.0001 1.38546 -0.0001
   1.265  10204.   0.980 1.37371 -0.0001 1.38533 -0.0001
   1.240  10000.  1.0000 1.37358 -0.0001 1.38519 -0.0001
   1.215   9800.  1.0204 1.37346 -0.0001 1.38506 -0.0001
   1.190   9600.  1.0417 1.37333 -0.0001 1.38492 -0.0001
   1.165   9400.  1.0638 1.37319 -0.0001 1.38478 -0.0001
   1.141   9200.  1.0870 1.37306 -0.0001 1.38464 -0.0001
   1.116   9000.  1.1111 1.37292 -0.0001 1.38449 -0.0001
   1.091   8800.  1.1364 1.37277 -0.0001 1.38434 -0.0001
   1.066   8600.  1.1628 1.37263 -0.0001 1.38418 -0.0001
   1.041   8400.  1.1905 1.37247 -0.0001 1.38402 -0.0001
   1.017   8200.  1.2195 1.37231 -0.0001 1.38385 -0.0001
  0.9919   8000.  1.2500 1.37215 -0.0001 1.38367 -0.0001
  0.9671   7800.  1.2821 1.37197 -0.0001 1.38349 -0.0001
  0.9423   7600.  1.3158 1.37179 -0.0001 1.38329 -0.0001
  0.9175   7400.  1.3514 1.37160 -0.0001 1.38309 -0.0001
  0.8927   7200.  1.3889 1.37140 -0.0001 1.38287 -0.0001
  0.8679   7000.  1.4286 1.37118 -0.0001 1.38265 -0.0001
  0.8431   6800.  1.4706 1.37096 -0.0001 1.38240 -0.0001
  0.8183   6600.  1.5152 1.37071 -0.0001 1.38214 -0.0001
  0.7935   6400.  1.5625 1.37045 -0.0001 1.38186 -0.0001
  0.7687   6200.  1.6129 1.37017 -0.0001 1.38156 -0.0001
  0.7439   6000.  1.6667 1.36986 -0.0001 1.38124 -0.0001
  0.7191   5800.  1.7241 1.36953 -0.0001 1.38088 -0.0001
  0.6943   5600.  1.7857 1.36917 -0.0001 1.38049 -0.0001
  0.6695   5400.  1.8519 1.36877 -0.0001 1.38007 -0.0001
  0.6447   5200.  1.9231 1.36833 -0.0001 1.37960 -0.0001
  0.6199   5000.  2.0000 1.36784 -0.0001 1.37907 -0.0001
  0.6075   4900.  2.0408 1.36757 -0.0001 1.37879 -0.0001
  0.5951   4800.  2.0833 1.36729 -0.0001 1.37849 -0.0001
  0.5827   4700.  2.1277 1.36699 -0.0001 1.37817 -0.0001
  0.5703   4600.  2.1739 1.36667 -0.0001 1.37783 -0.0001
  0.5579   4500.  2.2222 1.36633 -0.0001 1.37747 -0.0001
  0.5455   4400.  2.2727 1.36597 -0.0001 1.37708 -0.0001
  0.5331   4300.  2.3256 1.36559 -0.0001 1.37667 -0.0001
  0.5207   4200.  2.3810 1.36518 -0.0001 1.37623 -0.0001
  0.5083   4100.  2.4390 1.36474 -0.0001 1.37576 -0.0001
  0.4959   4000.  2.5000 1.36426 -0.0001 1.37525 -0.0001
  0.4835   3900.  2.5641 1.36375 -0.0001 1.37471 -0.0001
  0.4711   3800.  2.6316 1.36320 -0.0001 1.37412 -0.0001
  0.4587   3700.  2.7027 1.36261 -0.0001 1.37348 -0.0001
  0.4463   3600.  2.7778 1.36196 -0.0001 1.37279 -0.0001
  0.4339   3500.  2.8571 1.36126 -0.0001 1.37204 -0.0001
  0.4215   3400.  2.9412 1.36049 -0.0001 1.37122 -0.0001
  0.4092   3300.  3.0303 1.35966 -0.0001 1.37033 -0.0001
  0.3968   3200.  3.1250 1.35874 -0.0001 1.36934 -0.0001
  0.3844   3100.  3.2258 1.35773 -0.0001 1.36827 -0.0001
  0.3720   3000.  3.3333 1.35662 -0.0001 1.36707 -0.0001
  0.3596   2900.  3.4483 1.35539 -0.0001 1.36575 -0.0001
  0.3472   2800.  3.5714 1.35402 -0.0001 1.36429 -0.0001
  0.3348   2700.  3.7037 1.35249 -0.0001 1.36265 -0.0001
  0.3224   2600.  3.8462 1.35077 -0.0001 1.36080 -0.0001
  0.3100   2500.  4.0000 1.34883 -0.0001 1.35873 -0.0001
  0.2976   2400.  4.1667 1.34663 -0.0001 1.35637 -0.0001
  0.2852   2300.  4.3478 1.34412 -0.0001 1.35369 -0.0001
  0.2728   2200.  4.5455 1.34125 -0.0001 1.35060 -0.0001
  0.2604   2100.  4.7619 1.33792 -0.0001 1.34704 -0.0001
  0.2480   2000.  5.0000 1.33404  4.2E-7 1.34288 -0.0001
  0.2418   1950.  5.1282 1.33186  6.0E-7 1.34054 -0.0001
  0.2356   1900.  5.2632 1.32948  8.5E-7 1.33799 -0.0001
  0.2294   1850.  5.4054 1.32689  1.2E-6 1.33521 -0.0001
  0.2232   1800.  5.5556 1.32406  1.7E-6 1.33217 -0.0001
  0.2170   1750.  5.7143 1.32096  2.5E-6 1.32885 -0.0001
  0.2108   1700.  5.8824 1.31754  3.6E-6 1.32518 -0.0001
  0.2046   1650.  6.0606 1.31378  5.1E-6 1.32114 -0.0001
  0.1984   1600.  6.2500 1.30961  7.4E-6 1.31666 -0.0001
  0.1922   1550.  6.4516 1.30497  1.1E-5 1.31168 -0.0001
  0.1860   1500.  6.6667 1.29978  1.6E-5 1.30611 -0.0001
  0.1798   1450.  6.8966 1.29396  2.4E-5 1.29986 -0.0001
  0.1736   1400.  7.1429 1.28740  3.7E-5 1.29280 -0.0001
  0.1674   1350.  7.4074   1.281  5.7E-5   1.288 -0.0001
