;UO 
;UO SiO2-t.ASC: Values of n and k for trigonal quartz from various
;UO references in HOCI (pg. 724). References are 1, 2, 3, 6, 7, 8, 9.
;UO 
;UO From HANDBOOK OF OPTICAL CONSTANTS IN SOLIDS edited by Edward D.
;UO Palik. Copyright (c) 1985 by Academic Press, Inc. Reproduced by
;UO permission of the publisher.
;UO ----------------------------------------------------------------
;UO  eV         cm-1     um        n(o)     k(o)      n(e)      k(e) 
;UO ----------------------------------------------------------------
;N  7
;L  Energy[eV]  Wavelength[cm-1]  Wavelength[um]  n(o)  k(o)  n(e)  k(e)  
      26  209700 0.04769  0.6285  0.3243 -0.0001 -0.0001
    25.5  205670 0.04862  0.6432  0.3609 -0.0001 -0.0001
      25  201640 0.04959  0.6517  0.3907 -0.0001 -0.0001
    24.5  197600 0.05061  0.6591  0.4231 -0.0001 -0.0001
      24  193570 0.05166  0.6723  0.4540 -0.0001 -0.0001
    23.5  189540 0.05276  0.6862  0.4822 -0.0001 -0.0001
      23  185510 0.05391  0.6998  0.5097 -0.0001 -0.0001
    22.5  181470 0.05510  0.7138  0.5387 -0.0001 -0.0001
      22  177440 0.05636  0.7304  0.5667 -0.0001 -0.0001
    21.5  173410 0.05767  0.7470  0.5959 -0.0001 -0.0001
      21  169380 0.05904  0.7664  0.6272 -0.0001 -0.0001
    20.5  165340 0.06048  0.7900  0.6559 -0.0001 -0.0001
      20  161310 0.06199  0.8131  0.6844 -0.0001 -0.0001
    19.5  157280 0.06358  0.8371  0.7154 -0.0001 -0.0001
      19  153240 0.06526  0.8642  0.7488 -0.0001 -0.0001
    18.5  149210 0.06702  0.8949  0.7847 -0.0001 -0.0001
      18  145180 0.06888  0.9289  0.8273 -0.0001 -0.0001
   17.75  143160 0.06985  0.9499  0.8619 -0.0001 -0.0001
    17.5  141150 0.07085  0.9894  0.8987 -0.0001 -0.0001
    17.4  140340 0.07125   1.013  0.9108 -0.0001 -0.0001
   17.25  139130 0.07187   1.052  0.9236 -0.0001 -0.0001
      17  137110 0.07293   1.118  0.9153 -0.0001 -0.0001
   16.75  135100 0.07402   1.169  0.8917 -0.0001 -0.0001
    16.5  133080 0.07514   1.205  0.8599 -0.0001 -0.0001
   16.25  131060 0.07629   1.224  0.8223 -0.0001 -0.0001
      16  129050 0.07749   1.221  0.7896 -0.0001 -0.0001
   15.75  127030 0.07872   1.210  0.7848 -0.0001 -0.0001
    15.5  125020 0.07999   1.202  0.7841 -0.0001 -0.0001
   15.25  123000 0.08130   1.191  0.7968 -0.0001 -0.0001
      15  120980 0.08266   1.184  0.8265 -0.0001 -0.0001
    14.8  119370 0.08377   1.187  0.8694 -0.0001 -0.0001
    14.6  117760 0.08492   1.217  0.9290 -0.0001 -0.0001
    14.4  116140 0.08610   1.285  0.9724 -0.0001 -0.0001
    14.3  115340 0.08670   1.335  0.9829 -0.0001 -0.0001
    14.2  114530 0.08731   1.386  0.9709 -0.0001 -0.0001
      14  112920 0.08856   1.457  0.9187 -0.0001 -0.0001
    13.8  111300 0.08984   1.484  0.8462 -0.0001 -0.0001
    13.6  109690 0.09116   1.469  0.7910 -0.0001 -0.0001
    13.4  108080 0.09252   1.447  0.7761 -0.0001 -0.0001
    13.2  106460 0.09392   1.430  0.7715 -0.0001 -0.0001
      13  104850 0.09537   1.410  0.7753 -0.0001 -0.0001
    12.8  103240 0.09686   1.394  0.8017 -0.0001 -0.0001
    12.6  101620 0.09839   1.390  0.8406 -0.0001 -0.0001
    12.4  100010 0.09998   1.400  0.8908 -0.0001 -0.0001
    12.2   98399  0.1016   1.435  0.9573 -0.0001 -0.0001
      12   96786  0.1033   1.504   1.015 -0.0001 -0.0001
    11.9   95979  0.1042   1.551   1.035 -0.0001 -0.0001
    11.8   95173  0.1051   1.602   1.048 -0.0001 -0.0001
    11.7   94366  0.1060   1.661   1.056 -0.0001 -0.0001
    11.6   93560  0.1069   1.722   1.046 -0.0001 -0.0001
    11.5   92753  0.1078   1.782   1.027 -0.0001 -0.0001
    11.4   91947  0.1088   1.839  0.9939 -0.0001 -0.0001
    11.3   91140  0.1097   1.892  0.9452 -0.0001 -0.0001
    11.2   90334  0.1107   1.924  0.8730 -0.0001 -0.0001
    11.1   89527  0.1117   1.925  0.7958 -0.0001 -0.0001
      11   88721  0.1127   1.891  0.7210 -0.0001 -0.0001
    10.9   87914  0.1137   1.805  0.6597 -0.0001 -0.0001
   10.85   87511  0.1143   1.738  0.6418 -0.0001 -0.0001
   10.83   87349  0.1145   1.688  0.6356 -0.0001 -0.0001
    10.8   87107  0.1148   1.626  0.6732 -0.0001 -0.0001
   10.75   86704  0.1153   1.569  0.7594 -0.0001 -0.0001
    10.7   86301  0.1159   1.528  0.8463 -0.0001 -0.0001
   10.65   85898  0.1164   1.506  0.9666 -0.0001 -0.0001
    10.6   85494  0.1170   1.521   1.114 -0.0001 -0.0001
   10.55   85091  0.1175   1.607   1.289 -0.0001 -0.0001
    10.5   84688  0.1181   1.769   1.400 -0.0001 -0.0001
   10.45   84284  0.1186   1.959   1.454 -0.0001 -0.0001
    10.4   83881  0.1192   2.159   1.452 -0.0001 -0.0001
   10.37   83639  0.1196   2.289   1.423 -0.0001 -0.0001
   10.35   83478  0.1198   2.373   1.378 -0.0001 -0.0001
    10.3   83075  0.1204   2.515   1.229 -0.0001 -0.0001
   10.25   82671  0.1210   2.590   1.072 -0.0001 -0.0001
    10.2   82268  0.1215   2.619  0.9326 -0.0001 -0.0001
    10.1   81462  0.1227   2.621  0.7123 -0.0001 -0.0001
      10   80655  0.1240   2.581  0.5441 -0.0001 -0.0001
     9.9   79848  0.1252   2.529  0.4161 -0.0001 -0.0001
     9.8   79042  0.1265   2.464  0.3148 -0.0001 -0.0001
     9.7   78235  0.1278   2.397  0.2402 -0.0001 -0.0001
     9.6   77429  0.1291   2.335    0.17 -0.0001 -0.0001
     9.5   76622  0.1305   2.275    0.12 -0.0001 -0.0001
     9.4   75816  0.1319   2.222   0.082 -0.0001 -0.0001
     9.3   75009  0.1333   2.174   0.056 -0.0001 -0.0001
     9.2   74203  0.1348   2.133   0.036 -0.0001 -0.0001
     9.1   73396  0.1362   2.095   0.023 -0.0001 -0.0001
       9   72590  0.1378   2.060   0.013 -0.0001 -0.0001
     8.9   71783  0.1393   2.028  7.0E-3 -0.0001 -0.0001
     8.8   70976  0.1409   1.999  3.1E-3 -0.0001 -0.0001
     8.7   70170  0.1425   1.971  1.0E-3 -0.0001 -0.0001
     8.6   69363  0.1442   1.946  2.3E-4 -0.0001 -0.0001
     8.5   68557  0.1459   1.922  3.5E-5 -0.0001 -0.0001
     8.4   67750  0.1476   1.899  2.7E-6 -0.0001 -0.0001
     8.3   66944  0.1494   1.877 -0.0001 -0.0001 -0.0001
     8.2   66137  0.1512   1.856 -0.0001 -0.0001 -0.0001
     8.1   65331  0.1531   1.838 -0.0001 -0.0001 -0.0001
       8   64524  0.1550   1.820 -0.0001 -0.0001 -0.0001
     7.8   62911  0.1590   1.789 -0.0001 -0.0001 -0.0001
     7.6   61298  0.1631   1.761 -0.0001 -0.0001 -0.0001
     7.4   59685  0.1675   1.737 -0.0001 -0.0001 -0.0001
     7.2   58072  0.1722   1.716 -0.0001 -0.0001 -0.0001
       7   56459  0.1771   1.698 -0.0001 -0.0001 -0.0001
    6.75   54442  0.1837   1.679 -0.0001 -0.0001 -0.0001
     6.7   54039  0.1851  1.6775 -0.0001 1.68988 -0.0001
 6.68484 53917.9 0.185467 1.67578 -0.0001 1.68997 -0.0001
 6.40458 51657.4 0.193583 1.65999 -0.0001 1.67343 -0.0001
   6.262   50510  0.1980 1.65087 -0.0001 1.66394 -0.0001
  6.1972   49985 0.20006 1.64927 -0.0001 1.66227 -0.0001
  6.1210   49371 0.20255 1.64557 -0.0001 1.65842 -0.0001
 6.06422 48912.2 0.204448 1.64288 -0.0001 1.65562 -0.0001
  5.8740   47378 0.21107 1.63432 -0.0001 1.64671 -0.0001
 5.78168 46633.3 0.214439 1.63039 -0.0001 1.64262 -0.0001
 5.64935 45566.0 0.219462 1.62497 -0.0001 1.63698 -0.0001
 5.47374 44149.5 0.226503 1.61818 -0.0001 1.62992 -0.0001
   5.367   43290  0.2310 1.61395 -0.0001 1.62555 -0.0001
 5.36049 43236.1 0.231288 1.61401 -0.0001 1.62559 -0.0001
 5.10642 41186.8 0.242796 1.60525 -0.0001 1.61650 -0.0001
 4.95275 39947.4 0.250329 1.60032 -0.0001 1.61139 -0.0001
 4.81849 38864.5 0.257304 1.59622 -0.0001 1.60714 -0.0001
 4.71136 38000.4 0.263155 1.59309 -0.0001 1.60389 -0.0001
 4.51061 36381.2 0.274867 1.58752 -0.0001 1.59813 -0.0001
 4.25531 34322.0 0.291358 1.58098 -0.0001 1.59136 -0.0001
 4.08625 32958.5 0.303412 1.57955 -0.0001 1.58720 -0.0001
 3.97023 32022.6 0.312279 1.57433 -0.0001 1.584485 -0.0001
 3.81186 30745.3 0.325253 1.570915 -0.0001 1.58095 -0.0001
   3.647   29410  0.3400 1.56747 -0.0001 1.57737 -0.0001
 3.64261 29380.2 0.340365 1.56747 -0.0001 1.577385 -0.0001
  3.4566   27880 0.35868 1.563915 -0.0001 1.573705 -0.0001
   3.147   25380  0.3940 1.55846 -0.0001 1.56805 -0.0001
 3.12416 25198.6 0.396848 1.55813 -0.0001 1.56772 -0.0001
 3.06388 24712.3 0.404656 1.557156 -0.0001 1.56671 -0.0001
 3.02266 24379.9 0.410174 1.556502 -0.0001 1.566031 -0.0001
   2.857   23040  0.4340 1.55396 -0.0001 1.56339 -0.0001
 2.85641 23093.0 0.434047 1.553963 -0.0001 1.563405 -0.0001
 2.84470 22944.5 0.435834 1.553790 -0.0001 1.563225 -0.0001
 2.65023 21376.0 0.467815 1.551027 -0.0001 1.560368 -0.0001
 2.58300 20833.7 0.479991 1.550118 -0.0001 1.559428 -0.0001
 2.55037 20570.5 0.486133 1.549683 -0.0001 1.558979 -0.0001
   2.441   19685  0.5080 1.54822 -0.0001 1.55746 -0.0001
 2.43779 19662.5 0.508582 1.548229 -0.0001 1.557475 -0.0001
 2.39180 19291.5 0.518362 1.547651 -0.0001 1.556877 -0.0001
 2.32241 18731.9 0.53385 1.546799 -0.0001 1.555996 -0.0001
 2.27043 18312.6 0.546072 1.546174 -0.0001 1.555350 -0.0001
 2.14107 17269.2 0.579066 1.544667 -0.0001 1.553791 -0.0001
 2.11010 17019.5 0.587563 1.544316 -0.0001 1.553428 -0.0001
  2.1039   16969 0.58929 1.544246 -0.0001 1.553355 -0.0001
  2.1039   16969  0.5893 1.54424 -0.0001 1.55335 -0.0001
  1.9748   15928 0.62782 1.542819 -0.0001 1.551880 -0.0001
 1.92564 15531.6 0.643847 1.542288 -0.0001 1.551332 -0.0001
 1.88917 15237.4 0.656278 1.541899 -0.0001 1.550929 -0.0001
 1.85653 14974.2 0.667815 1.541553 -0.0001 1.550573 -0.0001
 1.84831 14907.9 0.670786 1.541466 -0.0001 1.550483 -0.0001
 1.75482 14153.9 0.706520 1.540488 -0.0001 1.549472 -0.0001
 1.70273 13733.7 0.728135 1.539948 -0.0001 1.548913 -0.0001
 1.61752 13046.4 0.766494 1.539071 -0.0001 1.548005 -0.0001
   1.614   13020  0.7680 1.53903 -0.0001 1.54794 -0.0001
 1.55998 12582.4 0.794763 1.538478 -0.0001 1.547392 -0.0001
   1.489   12010  0.8325 1.53773 -0.0001 1.54661 -0.0001
  1.4678   11839 0.84467 1.537525 -0.0001 1.54640 -0.0001
   1.251   10090  0.9914 1.53514 -0.0001 1.54392 -0.0001
 1.23982 10000.0 1.00000 1.53503 -0.0001 1.54381 -0.0001
 1.22263 9861.35 1.01406 1.53483 -0.0001 1.54360 -0.0001
 1.14477 9233.35 1.08303 1.53387 -0.0001 1.54260 -0.0001
  1.0695  8626.6  1.1592 1.53283 -0.0001 1.54152 -0.0001
 1.03318 8333.33 1.20000 1.53232 -0.0001 1.54098 -0.0001
 0.953706 7692.31 1.30000 1.53102 -0.0001 1.53962 -0.0001
 0.94860  7651.1  1.3070 1.53090 -0.0001 1.53951 -0.0001
 0.88825  7164.4  1.3958 1.52977 -0.0001 1.53832 -0.0001
 0.885584 7142.86 1.40000 1.52972 -0.0001 1.53826 -0.0001
 0.83817  6760.4  1.4792 1.52865 -0.0001 1.53716 -0.0001
 0.810545 6537.61 1.52961 1.52800 -0.0001 1.53646 -0.0001
 0.80435  6487.6  1.5414 1.52781 -0.0001 1.53630 -0.0001
 0.774886 6250.00 1.60000 1.52703 -0.0001 1.53545 -0.0001
 0.73733  5947.1  1.6815 1.52583 -0.0001 1.53422 -0.0001
 0.70388  5677.3  1.7614 1.52468 -0.0001 1.53301 -0.0001
 0.688788 5555.55 1.80000 1.52413 -0.0001 1.53242 -0.0001
 0.63721  5139.5  1.9457 1.52184 -0.0001 1.53004 -0.0001
 0.60388  4870.7  2.0531 1.52005 -0.0001 1.52823 -0.0001
 0.602362 4858.47 2.05820 1.51998 -0.0001 1.52814 -0.0001
  0.5391    4348   2.300 1.51561 -0.0001 -0.0001 -0.0001
 0.495927 4000.00 2.50000 1.51156 -0.0001  1.5195 -0.0001
  0.4769    3846   2.600 1.50986 -0.0001 -0.0001 -0.0001
  0.4133    3333   3.000 1.49953 -0.0001   1.507 -0.0001
  0.3542    2857   3.500 1.48451 -0.0001   1.492 -0.0001
  0.3100    2500   4.000 1.46617 -0.0001   1.473 -0.0001
  0.2952    2381   4.200   1.457 -0.0001   1.465 -0.0001
  0.2818    2273   4.400   1.448 -0.0001   1.455 -0.0001
  0.2695    2174   4.600   1.437 -0.0001   1.444 -0.0001
  0.2583    2083   4.800   1.425 -0.0001   1.432 -0.0001
  0.2480    2000   5.000   1.412 -0.0001   1.419 -0.0001
  0.2384    1923   5.200   1.398 -0.0001   1.404 -0.0001
  0.2296    1852   5.400   1.382 -0.0001   1.388 -0.0001
  0.2214    1786   5.600   1.364 -0.0001   1.369 -0.0001
  0.2138    1724   5.800   1.343 -0.0001   1.348 -0.0001
  0.2066    1667   6.000   1.320 2.27E-3   1.325 2.672E-3
  0.2033    1639   6.100   1.307 2.545E-3   1.311 3.000E-3
  0.2000    1613   6.200   1.294 2.862E-3   1.297 3.378E-3
  0.1968    1587   6.300   1.279 3.229E-3   1.282 3.816E-3
  0.1937    1563   6.400   1.263 3.657E-3   1.266 4.328E-3
  0.1907    1538   6.500   1.245 4.160E-3   1.248 4.928E-3
  0.1879    1515   6.600   1.226 4.755E-3   1.229 5.639E-3
  0.1851    1493   6.700   1.206 5.467E-3   1.207 6.486E-3
  0.1823    1471   6.800   1.183 6.328E-3   1.184 7.507E-3
  0.1797    1449   6.900   1.158 7.380E-3   1.159 8.747E-3
  0.1771    1429   7.000   1.130 8.683E-3   1.130 1.027E-2
  0.1759    1418   7.050   1.115 9.455E-3   1.115 1.117E-2
  0.1746    1408   7.100   1.099 1.032E-2   1.099 1.217E-2
  0.1734    1399   7.150   1.083 1.131E-2   1.081 1.330E-2
  0.1722    1389   7.200   1.065 1.243E-2   1.063 1.457E-2
  0.1710    1379   7.250   1.046 1.370E-2   1.043 1.601E-2
  0.1698    1370   7.300   1.025 1.517E-2   1.023 1.764E-2
  0.1687    1361   7.350   1.004 1.687E-2   1.000 1.951E-2
  0.1675    1351   7.400  0.9801 1.885E-2  0.9764 2.166E-2
  0.1664    1342   7.450  0.9549 2.117E-2  0.9505 2.413E-2
  0.1653    1333   7.500  0.9277 2.391E-2  0.9226 2.700E-2
  0.1642    1325   7.550  0.8982 2.717E-2  0.8923 3.035E-2
  0.1631    1316   7.600  0.8660 3.108E-2  0.8592 3.430E-2
  0.1621    1307   7.650  0.8308 3.583E-2  0.8230 3.899E-2
  0.1610    1299   7.700  0.7921 4.163E-2  0.7829 4.462E-2
  0.1600    1290   7.750  0.7492 4.883E-2  0.7338 5.150E-2
  0.1590    1282   7.800  0.7013 5.788E-2  0.6881 6.007E-2
  0.1579    1274   7.850  0.6472 6.949E-2  0.6308 7.112E-2
  0.1569    1266   7.900  0.5953 8.487E-2  0.5642 8.609E-2
  0.1560    1258   7.950  0.5132  0.1063  0.4850  0.1081
  0.1550    1250   8.000  0.4276  0.1391  0.3885  0.1450
  0.1540    1242   8.050  0.3274  0.1962  0.2767  0.2179
  0.1531    1235   8.100  0.2318  0.2958  0.1890  0.3399
  0.1521    1227   8.150  0.1728  0.4190  0.1454  0.4685
  0.1512    1220   8.200  0.1410  0.5380  0.1230  0.5857
  0.1503    1212   8.250  0.1216  0.6504  0.1094  0.6947
  0.1494    1205   8.300  0.1088  0.7599  0.1003  0.7992
  0.1485    1198   8.350  0.1005  0.8699 0.09390  0.9019
  0.1476    1190   8.400  0.0965  0.9842 0.08950   1.005
  0.1467    1183   8.450 0.09826   1.109 0.08671   1.110
  0.1459    1176   8.500  0.1136   1.255 0.08538   1.218
  0.1450    1170   8.550  0.1913   1.459 0.08549   1.331
  0.1442    1163   8.600  0.6590   1.421 0.08711   1.450
  0.1433    1156   8.650  0.2427   1.178 0.09042   1.578
  0.1425    1149   8.700  0.1309   1.408 0.09570   1.717
  0.1417    1143   8.750  0.1115   1.591  0.1034   1.868
  0.1409    1136   8.800  0.1102   1.763  0.1143   2.038
  0.1401    1130   8.850  0.1167   1.941  0.1296   2.230
  0.1393    1124   8.900  0.1290   2.134  0.1513   2.453
  0.1385    1117   8.950  0.1478   2.352  0.1828   2.719
  0.1378    1111   9.000  0.1757   2.606  0.2308   3.047
  0.1370    1105   9.050  0.2178   2.911  0.3092   3.470
  0.1362    1099   9.100  0.2846   3.296  0.4518   4.050
  0.1355    1093   9.150  0.4006   3.808  0.7618   4.924
  0.1348    1087   9.200  0.6330   4.546   1.689   6.406
  0.1340    1081   9.250   1.230   5.733   5.862   7.634
  0.1333    1075   9.300   3.583   7.566   7.460   2.497
  0.1326    1070   9.350   7.929   4.184   5.808  0.9409
  0.1319    1064   9.400   6.336   1.331   4.868  0.5056
  0.1312    1058   9.450   5.180  0.6460   4.291  0.3239
  0.1305    1053   9.500   4.497  0.3920   3.899  0.2293
  0.1298    1047   9.550   4.048  0.2685   3.614  0.1732
  0.1292    1042   9.600   3.727  0.1982   3.395  0.1367
  0.1285    1036   9.650   3.485  0.1539   3.221  0.1116
  0.1278    1031   9.700   3.295  0.1240   3.079 9.335E-2
  0.1272    1026   9.750   3.142  0.1027   2.961 7.968E-2
  0.1265    1020   9.800   3.014 8.691E-2   2.860 6.913E-2
  0.1259    1015   9.850   2.907 7.485E-2   2.773 6.078E-3
  0.1252    1010   9.900   2.814 6.540E-2   2.697 5.405E-2
  0.1246    1005   9.950   2.734 5.785E-2   2.631 4.854E-2
  0.1240    1000   10.00   2.663 5.170E-2   2.571 4.396E-2
  0.1234   995.0   10.05   2.600 4.662E-2   2.518 4.011E-2
  0.1228   990.1   10.10   2.544 4.238E-2   2.469 3.684E-2
  0.1221   985.2   10.15   2.493 3.879E-2   2.425 3.403E-2
  0.1216   980.4   10.20   2.447 3.573E-2   2.385 3.161E-2
  0.1210   975.6   10.25   2.405 3.310E-2   2.348 2.950E-2
  0.1204   970.9   10.30   2.366 3.083E-2   2.314 2.766E-2
  0.1198   966.2   10.35   2.330 2.885E-2   2.282 2.603E-2
  0.1192   961.5   10.40   2.297 2.712E-2   2.253 2.460E-2
  0.1186   956.9   10.45   2.266 2.560E-2   2.225 2.333E-2
  0.1181   952.4   10.50   2.237 2.427E-2   2.199 2.220E-2
  0.1175   947.9   10.55   2.210 2.309E-2   2.175 2.120E-2
  0.1170   943.4   10.60   2.184 2.205E-2   2.151 2.030E-2
  0.1164   939.0   10.65   2.159 2.114E-2   2.129 1.949E-2
  0.1159   934.6   10.70   2.136 2.033E-2   2.108 1.878E-2
  0.1153   930.2   10.75   2.113 1.962E-2   2.088 1.814E-2
  0.1148   925.9   10.80   2.092 1.901E-2   2.069 1.757E-2
  0.1143   921.7   10.85   2.071 1.847E-2   2.051 1.707E-2
  0.1137   917.4   10.90   2.051 1.802E-2   2.033 1.662E-2
  0.1132   913.2   10.95   2.032 1.764E-2   2.016 1.623E-2
  0.1127   909.1   11.00   2.013 1.734E-2   1.999 1.590E-2
  0.1122   905.0   11.05   1.995 1.710E-2   1.983 1.561E-2
  0.1117   900.9   11.10   1.977 1.694E-2   1.967 1.538E-2
  0.1112   896.9   11.15   1.959 1.685E-2   1.952 1.519E-2
  0.1107   892.9   11.20   1.941 1.683E-2   1.937 1.505E-2
  0.1102   888.9   11.25   1.924 1.690E-2   1.922 1.496E-2
  0.1097   885.0   11.30   1.906 1.706E-2   1.907 1.492E-2
  0.1092   881.1   11.35   1.888 1.730E-2   1.892 1.493E-2
  0.1088   877.2   11.40   1.870 1.766E-2   1.878 1.499E-2
  0.1083   873.4   11.45   1.852 1.814E-2   1.863 1.511E-2
  0.1078   869.6   11.50   1.833 1.877E-2   1.849 1.530E-2
  0.1073   865.8   11.55   1.814 1.956E-2   1.834 1.556E-2
  0.1069   862.1   11.60   1.794 2.055E-2   1.819 1.590E-2
  0.1064   858.4   11.65   1.773 2.180E-2   1.804 1.632E-2
  0.1060   854.7   11.70   1.751 2.335E-2   1.789 1.685E-2
  0.1055   851.1   11.75   1.727 2.530E-2   1.773 1.751E-2
  0.1051   847.5   11.80   1.701 2.775E-2   1.756 1.830E-2
  0.1046   843.9   11.85   1.672 3.088E-2   1.739 1.927E-2
  0.1042   840.3   11.90   1.641 3.491E-2   1.721 2.044E-2
  0.1038   836.8   11.95   1.605 4.021E-2   1.702 2.187E-2
  0.1033   833.3   12.00   1.564 4.732E-2   1.682 2.363E-2
  0.1029   829.9   12.05   1.516 5.715E-2   1.660 2.579E-2
  0.1025   826.4   12.10   1.457 7.123E-2   1.637 2.848E-2
  0.1020   823.0   12.15   1.384 9.241E-2   1.611 3.188E-2
  0.1016   819.7   12.20   1.289  0.1265   1.581 3.622E-2
  0.1012   816.3   12.25   1.162  0.1868   1.548 4.187E-2
  0.1008   813.0   12.30  0.9858  0.3097   1.510 4.940E-2
  0.1004   809.7   12.35  0.7844  0.5904   1.466 5.971E-2
 0.09999   806.5   12.40  0.7289   1.072   1.412 7.434E-2
 0.09958   803.2   12.45  0.9288   1.655   1.345 9.608E-2
 0.09919   800.0   12.50   1.587   2.269   1.260  0.1304
 0.09879   796.8   12.55   2.900   2.106   1.148  0.1896
 0.09840   793.7   12.60   3.236   1.105  0.9971  0.3041
 0.09801   790.5   12.65   2.956  0.4893  0.8281  0.5464
 0.09762   787.4   12.70   2.718  0.2805  0.7711  0.9621
 0.09724   784.3   12.75   2.552  0.1823  0.9404   1.473
 0.09686   781.3   12.80   2.433  0.1291   1.482   1.990
 0.09648   778.2   12.85   2.344 9.703E-2   2.539   1.968
 0.09611   775.2   12.90   2.275 7.628E-2   3.011   1.099
 0.09574   772.2   12.95   2.220 6.208E-2   2.834  0.5529
 0.09537   769.2   13.00   2.174 5.194E-2   2.625  0.3183
 0.09501   766.3   13.05   2.136 4.446E-2   2.469  0.2061
 0.09464   763.4   13.10   2.102 3.879E-2   2.355  0.1451
 0.09429   760.5   13.15   2.073 3.441E-2   2.269  0.1085
 0.09393   757.6   13.20   2.047 3.098E-2   2.202 8.480E-2
 0.09357   754.7   13.25   2.024 2.825E-2   2.148 6.861E-2
 0.09322   751.9   13.30   2.002 2.607E-2   2.104 5.705E-2
 0.09287   749.1   13.35   1.983 2.433E-2   2.066 4.851E-2
 0.09253   746.3   13.40   1.964 2.296E-2   2.034 4.201E-2
 0.09218   743.5   13.45   1.947 2.189E-2   2.006 3.696E-2
 0.09184   740.7   13.50   1.930 2.109E-2   1.981 3.295E-2
 0.09150   738.0   13.55   1.915 2.055E-2   1.959 2.972E-2
 0.09117   735.3   13.60   1.899 2.026E-2   1.939 2.708E-2
