;UO 
;UO SiO2-a.ASC: Values of n and k for fused (amorphous) quartz 
;UO from various references in HOCI (pg. 753) & HOCII (pg. 12).
;UO References are A, 1, 2, 4, 7, 9, 10, 12, 13, 14, 15 16, 17. 
;UO 
;UO Copyright (c) 1995 by the Optical Society of America.  Data
;UO from HANDBOOK OF OPTICAL CONSTANTS IN SOLIDS edited by Edward D.
;UO Palik. Copyright (c) 1985, 1991 by Academic Press, Inc. Reproduced
;UO by permission of the publisher.
;UO ------------------------------------------------------------- 
;UO      eV     cm-1     um           n          k         kABS
;UO -------------------------------------------------------------
;N  6
;L  Energy[eV]  Wavelength[cm-1]  Wavelength[um]  n  k  kABS  
   10000 80655000 0.0001240 0.9999945 4.68E-08 -0.0001
  9772.4 78819000 0.0001269 0.9999942 5.13E-08 -0.0001
  9549.9 77025000 0.0001298 0.9999939 5.62E-08 -0.0001
  9332.5 75271000 0.0001329 0.9999936 6.16E-08 -0.0001
  9120.1 73558000 0.0001359 0.9999933 6.75E-08 -0.0001
  8912.5 71884000 0.0001391 0.9999930 7.40E-08 -0.0001
  8709.6 70247000 0.0001424 0.9999927 8.10E-08 -0.0001
  8511.4 68649000 0.0001457 0.9999923 8.88E-08 -0.0001
  8317.6 67086000 0.0001491 0.9999920 9.73E-08 -0.0001
  8128.3 65559000 0.0001525 0.9999916 1.07E-07 -0.0001
  7943.3 64067000 0.0001561 0.9999912 1.17E-07 -0.0001
  7762.5 62608000 0.0001597 0.9999908 1.28E-07 -0.0001
  7585.8 61183000 0.0001634 0.9999903 1.40E-07 -0.0001
  7413.1 59790000 0.0001673 0.9999899 1.53E-07 -0.0001
  7244.4 58430000 0.0001711 0.9999894 1.68E-07 -0.0001
  7079.5 57100000 0.0001751 0.9999889 1.84E-07 -0.0001
  6918.3 55800000 0.0001792 0.9999884 2.01E-07 -0.0001
  6760.8 54529000 0.0001834 0.9999878 2.20E-07 -0.0001
  6606.9 53288000 0.0001877 0.9999872 2.41E-07 -0.0001
  6456.5 52075000 0.0001920 0.9999866 2.64E-07 -0.0001
  6309.6 50890000 0.0001965 0.9999860 2.89E-07 -0.0001
  6166.0 49732000 0.0002011 0.9999853 3.16E-07 -0.0001
  6025.6 48599000 0.0002058 0.9999846 3.46E-07 -0.0001
  5888.4 47493000 0.0002106 0.9999839 3.79E-07 -0.0001
  5754.4 46412000 0.0002155 0.9999831 4.14E-07 -0.0001
  5623.4 45356000 0.0002205 0.9999823 4.53E-07 -0.0001
  5495.4 44323000 0.0002256 0.9999815 4.96E-07 -0.0001
  5370.3 43314000 0.0002309 0.9999806 5.42E-07 -0.0001
  5248.1 42329000 0.0002362 0.9999797 5.93E-07 -0.0001
  5128.6 41365000 0.0002418 0.9999787 6.48E-07 -0.0001
  5011.9 40423000 0.0002474 0.9999777 7.09E-07 -0.0001
  4897.8 39503000 0.0002531 0.9999766 7.75E-07 -0.0001
  4786.3 38604000 0.0002590 0.9999755 8.47E-07 -0.0001
  4677.4 37726000 0.0002651 0.9999744 9.26E-07 -0.0001
  4570.9 36867000 0.0002712 0.9999731 1.01E-06 -0.0001
  4466.8 36027000 0.0002776 0.9999719 1.11E-06 -0.0001
  4365.2 35208000 0.0002840 0.9999705 1.21E-06 -0.0001
  4265.8 34406000 0.0002906 0.9999691 1.32E-06 -0.0001
  4168.7 33623000 0.0002974 0.9999676 1.44E-06 -0.0001
  4073.8 32857000 0.0003043 0.9999661 1.58E-06 -0.0001
  3981.1 32110000 0.0003114 0.9999645 1.72E-06 -0.0001
  3890.5 31379000 0.0003187 0.9999629 1.88E-06 -0.0001
  3801.9 30664000 0.0003261 0.9999611 2.05E-06 -0.0001
  3715.4 29967000 0.0003337 0.9999592 2.24E-06 -0.0001
  3630.8 29284000 0.0003415 0.9999573 2.44E-06 -0.0001
  3548.1 28617000 0.0003494 0.9999554 2.67E-06 -0.0001
  3467.4 27966000 0.0003576 0.9999532 2.91E-06 -0.0001
  3388.4 27329000 0.0003659 0.9999510 3.17E-06 -0.0001
  3311.3 26707000 0.0003744 0.9999487 3.46E-06 -0.0001
  3235.9 26099000 0.0003832 0.9999464 3.77E-06 -0.0001
  3162.3 25506000 0.0003921 0.9999439 4.11E-06 -0.0001
  3090.3 24925000 0.0004012 0.9999412 4.48E-06 -0.0001
  3020.0 24358000 0.0004105 0.9999385 4.89E-06 -0.0001
  2951.2 23803000 0.0004201 0.9999356 5.32E-06 -0.0001
  2884.0 23261000 0.0004299 0.9999326 5.80E-06 -0.0001
  2818.4 22732000 0.0004399 0.9999296 6.32E-06 -0.0001
  2754.2 22214000 0.0004502 0.9999263 6.88E-06 -0.0001
  2691.5 21708000 0.0004607 0.9999230 7.49E-06 -0.0001
  2630.3 21215000 0.0004714 0.9999195 8.15E-06 -0.0001
  2570.4 20732000 0.0004824 0.9999159 8.86E-06 -0.0001
  2511.9 20260000 0.0004936 0.9999121 9.64E-06 -0.0001
  2454.7 19798000 0.0005051 0.9999082 1.05E-05 -0.0001
  2398.8 19348000 0.0005169 0.9999042 1.14E-05 -0.0001
  2344.2 18907000 0.0005289 0.9999000 1.24E-05 -0.0001
  2290.9 18477000 0.0005412 0.999896 1.35E-05 -0.0001
  2238.7 18056000 0.0005538 0.999891 1.46E-05 -0.0001
  2187.8 17646000 0.0005667 0.999887 1.59E-05 -0.0001
  2138.0 17244000 0.0005799 0.999882 1.72E-05 -0.0001
  2089.3 16851000 0.0005934 0.999878 1.87E-05 -0.0001
  2041.7 16467000 0.0006073 0.999873 2.03E-05 -0.0001
  1995.3 16093000 0.0006214 0.999869 2.20E-05 -0.0001
  1949.8 15726000 0.0006359 0.999865 2.38E-05 -0.0001
  1905.5 15369000 0.0006507 0.999861 2.58E-05 -0.0001
  1862.1 15019000 0.0006658 0.999863 2.80E-05 -0.0001
  1819.7 14677000 0.0006813 0.999858 9.04E-06 -0.0001
  1778.3 14343000 0.0006972 0.999843 9.87E-06 -0.0001
  1737.8 14016000 0.0007135 0.999833 1.08E-05 -0.0001
  1698.2 13697000 0.0007301 0.999823 1.18E-05 -0.0001
  1659.6 13386000 0.0007471 0.999813 1.28E-05 -0.0001
  1621.8 13081000 0.0007645 0.999802 1.40E-05 -0.0001
  1584.9 12783000 0.0007823 0.999792 1.53E-05 -0.0001
  1548.8 12492000 0.0008005 0.999781 1.66E-05 -0.0001
  1513.6 12208000 0.0008191 0.999770 1.81E-05 -0.0001
  1479.1 11930000 0.0008382 0.999758 1.98E-05 -0.0001
  1445.4 11658000 0.0008578 0.999746 2.15E-05 -0.0001
  1412.5 11393000 0.0008778 0.999734 2.35E-05 -0.0001
  1380.4 11134000 0.0008982 0.999721 2.55E-05 -0.0001
  1349.0 10880000 0.0009191 0.999707 2.78E-05 -0.0001
  1318.3 10633000 0.0009405 0.999693 3.03E-05 -0.0001
  1288.2 10390000 0.0009625 0.999678 3.30E-05 -0.0001
  1258.9 10154000 0.0009849 0.999662 3.59E-05 -0.0001
  1230.3 9923000 0.001008 0.999646 3.91E-05 -0.0001
  1202.3 9697200 0.001031 0.999629 4.25E-05 -0.0001
  1174.9 9476200 0.001055 0.999611 4.62E-05 -0.0001
  1148.2 9260800 0.001080 0.999593 5.03E-05 -0.0001
  1122.0 9049500 0.001105 0.999573 5.47E-05 -0.0001
  1096.5 8843800 0.001131 0.999553 5.95E-05 -0.0001
  1071.5 8642200 0.001157 0.999532 6.48E-05 -0.0001
  1047.1 8445400 0.001184 0.999510 7.05E-05 -0.0001
  1023.3 8253400 0.001212 0.999487 7.66E-05 -0.0001
  1000.0 8065500 0.001240 0.999464 8.29E-05 -0.0001
   977.2 7881600 0.001269 0.999439 9.00E-05 -0.0001
   955.0 7702600 0.001298 0.999413 9.80E-05 -0.0001
   933.3 7527500 0.001328 0.999386 1.07E-04 -0.0001
   912.0 7355700 0.001359 0.999358 1.16E-04 -0.0001
   891.3 7188800 0.001391 0.999329 1.25E-04 -0.0001
   871.0 7025100 0.001423 0.999299 1.36E-04 -0.0001
   851.1 6864500 0.001457 0.999268 1.47E-04 -0.0001
   831.8 6708900 0.001491 0.999235 1.60E-04 -0.0001
   812.8 6555600 0.001525 0.999202 1.74E-04 -0.0001
   794.3 6406400 0.001561 0.999167 1.89E-04 -0.0001
   776.3 6261200 0.001597 0.999132 2.06E-04 -0.0001
   758.6 6118500 0.001634 0.999096 2.23E-04 -0.0001
   741.3 5979000 0.001673 0.999059 2.42E-04 -0.0001
   724.4 5842600 0.001712 0.999021 2.63E-04 -0.0001
   708.0 5710400 0.001751 0.99898 2.85E-04 -0.0001
   691.8 5579700 0.001792 0.99895 3.08E-04 -0.0001
   676.1 5453100 0.001834 0.99891 3.33E-04 -0.0001
   660.7 5328900 0.001877 0.99887 3.62E-04 -0.0001
   645.7 5207900 0.001920 0.99883 3.93E-04 -0.0001
   631.0 5089300 0.001965 0.99879 4.26E-04 -0.0001
   616.6 4973200 0.002011 0.99876 4.61E-04 -0.0001
   602.6 4860300 0.002057 0.99874 4.99E-04 -0.0001
   588.8 4749000 0.002106 0.99872 5.40E-04 -0.0001
   575.4 4640900 0.002155 0.99871 5.85E-04 -0.0001
   562.3 4535200 0.002205 0.99874 6.33E-04 -0.0001
   549.5 4432000 0.002256 0.99890 6.86E-04 -0.0001
   537.0 4331200 0.002309 0.99887 2.04E-04 -0.0001
   524.8 4232800 0.002363 0.99862 2.21E-04 -0.0001
   512.9 4136800 0.002417 0.99848 2.39E-04 -0.0001
   501.2 4042400 0.002474 0.99835 2.58E-04 -0.0001
   489.8 3950500 0.002531 0.99824 2.79E-04 -0.0001
   478.6 3860100 0.002591 0.99812 3.02E-04 -0.0001
   467.7 3772200 0.002651 0.99801 3.26E-04 -0.0001
   457.1 3686700 0.002712 0.99789 3.52E-04 -0.0001
   446.7 3602900 0.002776 0.99778 3.80E-04 -0.0001
   436.5 3520600 0.002840 0.99765 4.11E-04 -0.0001
   426.6 3440700 0.002906 0.99753 4.44E-04 -0.0001
   416.9 3362500 0.002974 0.99740 4.80E-04 -0.0001
   407.4 3285900 0.003043 0.99727 5.18E-04 -0.0001
   398.1 3210900 0.003114 0.99713 5.60E-04 -0.0001
   389.0 3137500 0.003187 0.99698 6.05E-04 -0.0001
   380.2 3066500 0.003261 0.99683 6.53E-04 -0.0001
   371.5 2996300 0.003337 0.99667 7.06E-04 -0.0001
   363.1 2928600 0.003415 0.99651 7.64E-04 -0.0001
   354.8 2861600 0.003494 0.99634 8.26E-04 -0.0001
   346.7 2796300 0.003576 0.99616 8.93E-04 -0.0001
   338.8 2732600 0.003660 0.99598 9.65E-04 -0.0001
   331.1 2670500 0.003745 0.99579 1.04E-03 -0.0001
   323.6 2610000 0.003831 0.99559 1.13E-03 -0.0001
   316.2 2550300 0.003921 0.99539 1.22E-03 -0.0001
   309.0 2492200 0.004012 0.99518 1.32E-03 -0.0001
   302.0 2435800 0.004105 0.99496 1.43E-03 -0.0001
   295.1 2380100 0.004201 0.99473 1.54E-03 -0.0001
   288.4 2326100 0.004299 0.99450 1.66E-03 -0.0001
   281.8 2272900 0.004400 0.99426 1.79E-03 -0.0001
   275.4 2221200 0.004502 0.99401 1.92E-03 -0.0001
   269.1 2170400 0.004607 0.99375 2.07E-03 -0.0001
   263.0 2121200 0.004714 0.99348 2.22E-03 -0.0001
   257.0 2072800 0.004824 0.99320 2.39E-03 -0.0001
   251.2 2026100 0.004936 0.99291 2.57E-03 -0.0001
   245.5 1980100 0.005050 0.99260 2.77E-03 -0.0001
   239.9 1934900 0.005168 0.99229 2.98E-03 -0.0001
   234.4 1890600 0.005289 0.99197 3.21E-03 -0.0001
   229.1 1847800 0.005412 0.99165 3.46E-03 -0.0001
   223.9 1805900 0.005537 0.99131 3.72E-03 -0.0001
   218.8 1764700 0.005667 0.99097 4.01E-03 -0.0001
   213.8 1724400 0.005799 0.99063 4.32E-03 -0.0001
   208.9 1684900 0.005935 0.99028 4.66E-03 -0.0001
   204.2 1647000 0.006072  0.9899 5.02E-03 -0.0001
   199.5 1609100 0.006215  0.9896 5.41E-03 -0.0001
   195.0 1572800 0.006358  0.9892 5.83E-03 -0.0001
   190.6 1537300 0.006505  0.9889 6.28E-03 -0.0001
   186.2 1501800 0.006659  0.9886 6.78E-03 -0.0001
   182.0 1467900 0.006812  0.9884 7.30E-03 -0.0001
   177.8 1434000 0.006973  0.9882 7.76E-03 -0.0001
   173.8 1401800 0.007134  0.9881 8.21E-03 -0.0001
   169.8 1369500 0.007302  0.9879 8.61E-03 -0.0001
   166.0 1338900 0.007469  0.9878 8.92E-03 -0.0001
   162.2 1308200 0.007644  0.9875 9.18E-03 -0.0001
   158.5 1278400 0.007822  0.9872 9.48E-03 -0.0001
   154.9 1249300 0.008004  0.9868 9.79E-03 -0.0001
   151.4 1221100 0.008189  0.9863 1.02E-02 -0.0001
   151.2 1219500  0.0082  0.9871 7.3E-03 -0.0001
   147.9 1192900 0.008383  0.9859 1.08E-02 -0.0001
   147.6 1190500  0.0084  0.9865 7.6E-03 -0.0001
   144.5 1165500 0.008580  0.9855 1.15E-02 -0.0001
   144.2 1162800  0.0086   0.986 8.1E-03 -0.0001
   141.3 1139700 0.008775  0.9853 1.23E-02 -0.0001
   140.9 1136400  0.0088  0.9855 8.9E-03 -0.0001
   138.0 1113000 0.008984  0.9853 1.29E-02 -0.0001
   137.8 1111100  0.0090  0.9853 9.9E-03 -0.0001
   134.9 1088000 0.009191  0.9853 1.34E-02 -0.0001
   134.8 1087000  0.0092  0.9854 1.07E-02 -0.0001
   131.9 1063800  0.0094  0.9858 1.14E-02 -0.0001
   131.8 1063000 0.009407  0.9854 1.38E-02 -0.0001
   129.2 1041700  0.0096  0.9868 1.11E-02 -0.0001
   128.8 1038800 0.009626  0.9854 1.41E-02 -0.0001
   126.5 1020400  0.0098  0.9872 1.11E-02 -0.0001
   125.9 1015400 0.009848  0.9854 1.43E-02 -0.0001
   124.0 1000000  0.0100  0.9874 9.7E-03 -0.0001
   123.0  992060 0.01008  0.9855 1.44E-02 -0.0001
   121.6  980390  0.0102  0.9865 8.5E-03 -0.0001
   120.2  969470 0.01031  0.9853 1.41E-02 -0.0001
   119.2  961540  0.0104  0.9851 8.3E-03 -0.0001
   117.5  947700 0.01055  0.9849 1.39E-02 -0.0001
   117.0  943400  0.0106  0.9841 9.6E-03 -0.0001
   114.8  925920 0.01080  0.9843 1.37E-02 -0.0001
   114.8  925930  0.0108  0.9848 9.9E-03 -0.0001
   112.7  909090  0.0110  0.9844 9.0E-03 -0.0001
   112.2  904950 0.01105  0.9834 1.38E-02 -0.0001
   110.7  892860  0.0112  0.9822 9.3E-03 -0.0001
   109.7  884790 0.01130  0.9827 1.39E-02 -0.0001
   108.8  877190  0.0114  0.9828 1.59E-02 -0.0001
   107.2  864620 0.01157  0.9819 1.42E-02 -0.0001
   106.9  862070  0.0116  0.9867 1.06E-02 -0.0001
   105.1  847460  0.0118  0.9858 7.5E-03 -0.0001
   104.7  844460 0.01184  0.9813 1.45E-02 -0.0001
   103.3  833330  0.0120  0.9839 6.5E-03 -0.0001
   102.3  825100 0.01212  0.9809 1.48E-02 -0.0001
   101.6  819670  0.0122  0.9823 6.8E-03 -0.0001
   100.0  806550 0.01240  0.9821 1.52E-02 -0.0001
   99.99  806450  0.0124  0.9813 7.0E-03 -0.0001
   98.40  793650  0.0126  0.9803 7.3E-03 -0.0001
    97.7  788000 0.01269  0.9792 1.09E-02 -0.0001
   96.86  781250  0.0128  0.9794 7.6E-03 -0.0001
    95.5  770260 0.01298  0.9762 1.16E-02 -0.0001
   95.37  769230  0.0130  0.9789 7.6E-03 -0.0001
   93.93  757580  0.0132  0.9778 8.3E-03 -0.0001
    93.3  752510 0.01329  0.9740 1.24E-02 -0.0001
   92.53  746270  0.0134   0.977 8.7E-03 -0.0001
    91.2  735570 0.01359  0.9721 1.32E-02 -0.0001
   91.17  735290  0.0136  0.9761 9.3E-03 -0.0001
   89.84  724640  0.0138  0.9747 1.03E-02 -0.0001
    87.1  702510 0.01423  0.9683 1.49E-02 -0.0001
    85.1  686370 0.01457  0.9665 1.59E-02 -0.0001
    83.2  671050 0.01490  0.9646 1.69E-02 -0.0001
   82.66  666670  0.0150  0.9634 1.99E-02 -0.0001
    81.3  655730 0.01525  0.9627 1.80E-02 -0.0001
    79.4  640400 0.01562  0.9608 1.92E-02 -0.0001
    77.6  625880 0.01598  0.9588 2.04E-02 -0.0001
   77.49  625000  0.0160  0.9608 2.26E-02 -0.0001
    75.9  612170 0.01634  0.9568 2.18E-02 -0.0001
    74.1  597650 0.01673  0.9547 2.32E-02 -0.0001
   72.93  588240  0.0170  0.9562 2.44E-02 -0.0001
    72.4  583940 0.01712  0.9525 2.46E-02 -0.0001
    70.8  571040 0.01751  0.9503 2.62E-02 -0.0001
    69.2  558130 0.01792  0.9481 2.79E-02 -0.0001
   68.88  555560  0.0180  0.9509 2.81E-02 -0.0001
    67.6  545230 0.01834  0.9457 2.97E-02 -0.0001
    66.1  533130 0.01876  0.9434 3.16E-02 -0.0001
   65.26  526320  0.0190  0.9458 3.35E-02 -0.0001
    64.6  521030 0.01919  0.9409 3.37E-02 -0.0001
    63.1  508930 0.01965  0.9384 3.59E-02 -0.0001
   61.99  500000  0.0200  0.9416 3.74E-02 -0.0001
    61.7  497640 0.02009  0.9359 3.82E-02 -0.0001
    60.3  486350 0.02056  0.9333 4.07E-02 -0.0001
   59.04  476190  0.0210  0.9386 4.37E-02 -0.0001
    58.9  475060 0.02105  0.9307 4.33E-02 -0.0001
    57.5  463770 0.02156  0.9279 4.61E-02 -0.0001
   56.36  454550  0.0220  0.9328 4.62E-02 -0.0001
    56.2  453280 0.02206  0.9252 4.91E-02 -0.0001
    55.0  443600 0.02254  0.9224 5.23E-02 -0.0001
   53.91  434780  0.0230  0.9271 5.2E-02 -0.0001
    53.7  433120 0.02309  0.9196 5.56E-02 -0.0001
    52.5  423440 0.02362  0.9168 5.92E-02 -0.0001
   51.66  416670  0.0240  0.9222 5.78E-02 -0.0001
    51.3  413760 0.02417  0.9140 6.31E-02 -0.0001
   49.59  400000  0.0250  0.9164 6.5E-02 -0.0001
   47.69  384620  0.0260  0.9105 7.26E-02 -0.0001
   45.92  370370  0.0270  0.9207 6.8E-02 -0.0001
   44.28  357140  0.0280  0.9175 7.5E-02 -0.0001
   42.75  344830  0.0290  0.9137 8.2E-02 -0.0001
   41.33  333330  0.0300   0.913 9.0E-02 -0.0001
   40.00  322580  0.0310   0.907 9.2E-02 -0.0001
   38.75  312500  0.0320   0.901 9.4E-02 -0.0001
   37.57  303030  0.0330   0.895 9.8E-02 -0.0001
   36.47  294120  0.0340   0.888   0.107 -0.0001
   35.42  285710  0.0350   0.882   0.113 -0.0001
   34.44  277780  0.0360   0.877   0.120 -0.0001
   33.51  270270  0.0370   0.870   0.128 -0.0001
   32.63  263160  0.0380   0.866   0.137 -0.0001
   31.79  256410  0.0390   0.858   0.144 -0.0001
   31.00  250000  0.0400   0.851   0.156 -0.0001
   30.24  243900  0.0410   0.845   0.169 -0.0001
   29.52  238100  0.0420   0.839   0.180 -0.0001
   28.83  232560  0.0430   0.833   0.190 -0.0001
   28.18  227270  0.0440   0.827   0.202 -0.0001
   27.55  222220  0.0450   0.822   0.218 -0.0001
   26.95  217390  0.0460   0.817   0.233 -0.0001
   26.38  212770  0.0470   0.813   0.250 -0.0001
   25.83  208330  0.0480   0.808   0.270 -0.0001
   25.30  204080  0.0490   0.804   0.282 -0.0001
      25  201640 0.04959   0.733   0.325 -0.0001
   24.80  200000  0.0500   0.803   0.300 -0.0001
   24.31  196080  0.0510   0.804   0.322 -0.0001
      24  193570 0.05166   0.753   0.375 -0.0001
   23.84  192310  0.0520   0.806   0.343 -0.0001
   23.39  188680  0.0530   0.811   0.366 -0.0001
      23  185510 0.05391   0.774   0.434 -0.0001
   22.96  185190   0.540   0.817   0.385 -0.0001
   22.54  181820  0.0550   0.822   0.408 -0.0001
   22.14  178570  0.0560   0.829   0.430 -0.0001
      22  177440 0.05636   0.797   0.480 -0.0001
   21.75  175440  0.0570   0.833   0.450 -0.0001
   21.38  172410  0.0580   0.843   0.470 -0.0001
   21.01  169490  0.0590   0.851   0.482 -0.0001
      21  169380 0.05904   0.827   0.530 -0.0001
   20.66  166670  0.0600   0.862   0.497 -0.0001
      20  161310 0.06199   0.859   0.585 -0.0001
    19.5  157280 0.06358   0.879   0.613 -0.0001
      19  153240 0.06526   0.902   0.645 -0.0001
    18.5  149210 0.06701   0.927   0.677 -0.0001
      18  145180 0.06888   0.957   0.712 -0.0001
   17.75  143160 0.06985   0.975   0.731 -0.0001
    17.5  141150 0.07085   0.999   0.750 -0.0001
   17.25  139139 0.07187   1.030   0.763 -0.0001
      17  137110 0.07293   1.072   0.768 -0.0001
   16.75  135100 0.07402   1.124   0.765 -0.0001
    16.5  133080 0.07514   1.137   0.755 -0.0001
   16.25  131060 0.07630   1.156   0.737 -0.0001
      16  129050 0.07749   1.172   0.717 -0.0001
   15.75  127030 0.07872   1.178   0.703 -0.0001
    15.5  125020 0.07999   1.172   0.696 -0.0001
   15.25  123000 0.08130   1.167   0.699 -0.0001
      15  120980 0.08266   1.168   0.711 -0.0001
   14.75  118970 0.08405   1.175   0.739 -0.0001
    14.5  116950 0.08551   1.195   0.771 -0.0001
   14.25  114930 0.08700   1.225   0.799 -0.0001
      14  112920 0.08856   1.265   0.808 -0.0001
   13.75  110900 0.09017   1.320   0.795 -0.0001
    13.5  108880 0.09184   1.363   0.775 -0.0001
   13.25  106870 0.09357   1.371   0.755 -0.0001
      13  104850 0.09537   1.368   0.747 -0.0001
   12.75  102840 0.09724   1.372   0.766 -0.0001
    12.5  100820 0.09919   1.383   0.793 -0.0001
   12.25   98800  0.1012   1.410   0.824 -0.0001
      12   96790  0.1033   1.475   0.861 -0.0001
    11.8   95170  0.1051   1.554   0.874 -0.0001
    11.6   93560  0.1069   1.635   0.859 -0.0001
    11.4   91950  0.1088   1.716   0.810 -0.0001
    11.2   90330  0.1107   1.766   0.718 -0.0001
      11   88720  0.1127   1.739   0.569 -0.0001
    10.9   87910  0.1137   1.687   0.565 -0.0001
    10.8   87110  0.1148   1.587   0.618 -0.0001
    10.7   86300  0.1159   1.513   0.725 -0.0001
    10.6   85490  0.1170   1.492   0.914 -0.0001
    10.5   84690  0.1181   1.567    1.11 -0.0001
   10.45   84280  0.1187   1.645   1.136 -0.0001
    10.4   83880  0.1192   1.772    1.13 -0.0001
   10.35   83480  0.1198   1.919   1.045 -0.0001
    10.3   83070  0.1204   2.048   0.925 -0.0001
   10.25   82670  0.1210   2.152   0.810 -0.0001
    10.2   82270  0.1215   2.240   0.715 -0.0001
    10.1   81460  0.1228   2.332   0.460 -0.0001
      10   80650  0.1240   2.330   0.323 -0.0001
     9.9   79850  0.1252   2.292   0.236 -0.0001
     9.8   79040  0.1265   2.243   0.168 -0.0001
     9.7   78240  0.1278   2.190   0.119 -0.0001
     9.6   77430  0.1291   2.140   0.077 -0.0001
     9.5   76620  0.1305   2.092  0.0561 -0.0001
     9.4   75820  0.1319   2.047  0.0430 -0.0001
     9.3   75010  0.1333   2.006  0.0339 -0.0001
     9.2   74200  0.1348   1.969  0.0271 -0.0001
     9.1   73400  0.1362   1.935  0.0228 -0.0001
     9.0   72590  0.1378   1.904 1.89E-02 -0.0001
     8.9   71780  0.1393   1.876 1.56E-02 -0.0001
     8.8   70980  0.1409   1.850 1.32E-02 -0.0001
     8.7   70170  0.1425   1.825 1.09E-02 -0.0001
     8.6   69360  0.1442   1.803 8.38E-03 -0.0001
     8.5   68560  0.1459   1.783 5.57E-03 -0.0001
     8.4   67750  0.1476   1.764 3.17E-03 -0.0001
     8.3   66940  0.1494   1.747 1.40E-03 -0.0001
     8.2   66140  0.1512   1.730 4.63E-04 -0.0001
     8.1   65330  0.1531   1.716 1.22E-04 -0.0001
     8.0   64520  0.1550   1.702 3.2E-05 -0.0001
     7.8   62910  0.1590   1.676 4.7E-06 -0.0001
