;UO 
;UO SrTiO3.ASC: Values of n and k for cubic strontium titanate
;UO obtained from various references in HOCII (pg. 1038).
;UO References are 7, 11, 13, 17. 
;UO 
;UO From HANDBOOK OF OPTICAL CONSTANTS IN SOLIDS II edited by Edward D.
;UO Palik. Copyright (c) 1991 by Academic Press, Inc. Reproduced by
;UO permission of the publisher.
;UO -------------------------------------------------------------- 
;UO      eV    cm-1     um        n        k       n        k
;UO --------------------------------------------------------------	
;N  7
;L  Energy[eV]  Wavelength[cm-1]  Wavelength[um]  n  k  n  k  
    30.0  241900 0.04133   0.574   0.383 -0.0001 -0.0001
    29.9  241100 0.04147   0.568   0.392 -0.0001 -0.0001
    29.8  240300 0.04161   0.563   0.404 -0.0001 -0.0001
    29.7  239500 0.04175   0.558   0.416 -0.0001 -0.0001
    29.6  238700 0.04189   0.553   0.427 -0.0001 -0.0001
    29.5  237900 0.04203   0.549   0.442 -0.0001 -0.0001
    29.4  237100 0.04218   0.547   0.460 -0.0001 -0.0001
    29.3  236300 0.04232   0.548   0.477 -0.0001 -0.0001
    29.2  235500 0.04247   0.548   0.494 -0.0001 -0.0001
    29.1  234700 0.04261   0.550   0.510 -0.0001 -0.0001
    29.0  233900 0.04276   0.552   0.525 -0.0001 -0.0001
    28.9  233100 0.04290   0.554   0.541 -0.0001 -0.0001
    28.8  232300 0.04305   0.557   0.557 -0.0001 -0.0001
    28.7  231500 0.04321   0.565   0.572 -0.0001 -0.0001
    28.6  230600 0.04336   0.572   0.584 -0.0001 -0.0001
    28.5  229800 0.04351   0.580   0.597 -0.0001 -0.0001
    28.4  229000 0.04365   0.587   0.609 -0.0001 -0.0001
    28.3  228200 0.04382   0.595   0.621 -0.0001 -0.0001
    28.2  227400 0.04397   0.603   0.634 -0.0001 -0.0001
    28.1  226600 0.04413   0.612   0.645 -0.0001 -0.0001
    28.0  225800 0.04429   0.620   0.655 -0.0001 -0.0001
    27.9  225000 0.04444   0.629   0.665 -0.0001 -0.0001
    27.8  224200 0.04560   0.638   0.674 -0.0001 -0.0001
    27.7  223400 0.04477   0.646   0.684 -0.0001 -0.0001
    27.6  222600 0.04493   0.656   0.694 -0.0001 -0.0001
    27.5  221800 0.04509   0.670   0.703 -0.0001 -0.0001
    27.4  221000 0.04526   0.683   0.712 -0.0001 -0.0001
    27.3  220200 0.04542   0.697   0.720 -0.0001 -0.0001
    27.2  219400 0.04559   0.710   0.728 -0.0001 -0.0001
    27.1  218500 0.04576   0.723   0.736 -0.0001 -0.0001
    27.0  217700 0.04593   0.736   0.744 -0.0001 -0.0001
    26.9  216900 0.04610   0.747   0.752 -0.0001 -0.0001
    26.8  216100 0.04627   0.759   0.760 -0.0001 -0.0001
    26.7  215300 0.04644   0.770   0.768 -0.0001 -0.0001
    26.6  214500 0.04662   0.782   0.774 -0.0001 -0.0001
    26.5  213700 0.04679   0.793   0.779 -0.0001 -0.0001
    26.4  212900 0.04697   0.805   0.784 -0.0001 -0.0001
    26.3  212100 0.04715   0.817   0.789 -0.0001 -0.0001
    26.2  211300 0.04733   0.828   0.794 -0.0001 -0.0001
    26.1  210500 0.04751   0.838   0.799 -0.0001 -0.0001
    26.0  209700 0.04769   0.845   0.802 -0.0001 -0.0001
    25.9  208900 0.04788   0.853   0.804 -0.0001 -0.0001
    25.8  208100 0.04806   0.860   0.805 -0.0001 -0.0001
    25.7  207300 0.04825   0.868   0.807 -0.0001 -0.0001
    25.6  206500 0.04844   0.875   0.809 -0.0001 -0.0001
    25.5  205600 0.04863   0.883   0.811 -0.0001 -0.0001
    25.4  204800 0.04882   0.890   0.809 -0.0001 -0.0001
    25.3  204000 0.04901   0.900   0.806 -0.0001 -0.0001
    25.2  203200 0.04921   0.911   0.803 -0.0001 -0.0001
    25.1  202400 0.04940   0.921   0.800 -0.0001 -0.0001
    25.0  201600 0.04960   0.932   0.797 -0.0001 -0.0001
    24.9  200800 0.04980   0.942   0.794 -0.0001 -0.0001
    24.8  200000 0.05000   0.944   0.792 -0.0001 -0.0001
    24.7  199200 0.05020   0.944   0.791 -0.0001 -0.0001
    24.6  198400 0.05041   0.943   0.789 -0.0001 -0.0001
    24.5  197600 0.05061   0.943   0.788 -0.0001 -0.0001
    24.4  196800 0.05082   0.949   0.789 -0.0001 -0.0001
    24.3  196000 0.05103   0.956   0.794 -0.0001 -0.0001
    24.2  195200 0.05124   0.963   0.800 -0.0001 -0.0001
    24.1  194400 0.05145   0.969   0.806 -0.0001 -0.0001
    24.0  193500 0.05167   0.984   0.810 -0.0001 -0.0001
    23.9  192700 0.05188   0.998   0.808 -0.0001 -0.0001
    23.8  191900 0.05210   1.013   0.806 -0.0001 -0.0001
    23.7  191100 0.05232   1.022   0.803 -0.0001 -0.0001
    23.6  190300 0.05254   1.026   0.801 -0.0001 -0.0001
    23.5  189500 0.05277   1.029   0.798 -0.0001 -0.0001
    23.4  188700 0.05299   1.033   0.796 -0.0001 -0.0001
    23.3  187900 0.05322   1.037   0.793 -0.0001 -0.0001
    23.2  187100 0.05345   1.041   0.791 -0.0001 -0.0001
    23.1  186300 0.05368   1.046   0.788 -0.0001 -0.0001
    23.0  185500 0.05391   1.051   0.786 -0.0001 -0.0001
    22.9  184700 0.05415   1.056   0.783 -0.0001 -0.0001
    22.8  183900 0.05439   1.061   0.781 -0.0001 -0.0001
    22.7  183100 0.05463   1.064   0.779 -0.0001 -0.0001
    22.6  182300 0.05487   1.067   0.777 -0.0001 -0.0001
    22.5  181500 0.05511   1.070   0.775 -0.0001 -0.0001
    22.4  180600 0.05536   1.073   0.774 -0.0001 -0.0001
    22.3  179800 0.05561   1.076   0.773 -0.0001 -0.0001
    22.2  179000 0.05586   1.079   0.771 -0.0001 -0.0001
    22.1  178200 0.05611   1.082   0.770 -0.0001 -0.0001
    22.0  177400 0.05636   1.085   0.769 -0.0001 -0.0001
    21.9  176600 0.05662   1.088   0.767 -0.0001 -0.0001
    21.8  175800 0.05688   1.091   0.766 -0.0001 -0.0001
    21.7  175000 0.05714   1.095   0.766 -0.0001 -0.0001
    21.6  174200 0.05741   1.098   0.767 -0.0001 -0.0001
    21.5  173400 0.05767   1.101   0.768 -0.0001 -0.0001
    21.4  172600 0.05794   1.104   0.769 -0.0001 -0.0001
    21.3  171800 0.05822   1.107   0.770 -0.0001 -0.0001
    21.2  171000 0.05849   1.111   0.772 -0.0001 -0.0001
    21.1  170200 0.05877   1.114   0.773 -0.0001 -0.0001
    21.0  169400 0.05905   1.117   0.773 -0.0001 -0.0001
    20.9  168500 0.05933   1.122   0.774 -0.0001 -0.0001
    20.8  167700 0.05962   1.127   0.774 -0.0001 -0.0001
    20.7  166900 0.05990   1.132   0.775 -0.0001 -0.0001
    20.6  166100 0.06019   1.137   0.775 -0.0001 -0.0001
    20.5  165300 0.06049   1.142   0.776 -0.0001 -0.0001
    20.4  164500 0.06078   1.148   0.776 -0.0001 -0.0001
    20.3  163700 0.06108   1.153   0.777 -0.0001 -0.0001
    20.2  162900 0.06139   1.158   0.777 -0.0001 -0.0001
    20.1  162100 0.06169   1.163   0.778 -0.0001 -0.0001
    20.0  161300 0.06200   1.169   0.778 -0.0001 -0.0001
    19.9  160500 0.06231   1.175   0.779 -0.0001 -0.0001
    19.8  159700 0.06263   1.180   0.779 -0.0001 -0.0001
    19.7  158900 0.06294   1.186   0.781 -0.0001 -0.0001
    19.6  158100 0.06327   1.192   0.784 -0.0001 -0.0001
    19.5  157300 0.06359   1.198   0.787 -0.0001 -0.0001
    19.4  156500 0.06392   1.203   0.790 -0.0001 -0.0001
    19.3  155600 0.06425   1.209   0.793 -0.0001 -0.0001
    19.2  154800 0.06458   1.215   0.793 -0.0001 -0.0001
    19.1  154000 0.06492   1.220   0.792 -0.0001 -0.0001
    19.0  153200 0.06526   1.226   0.790 -0.0001 -0.0001
    18.9  152400 0.06561   1.231   0.787 -0.0001 -0.0001
    18.8  151600 0.06596   1.237   0.783 -0.0001 -0.0001
    18.7  150800 0.06631   1.243   0.780 -0.0001 -0.0001
    18.6  150000 0.06667   1.248   0.776 -0.0001 -0.0001
    18.5  149200 0.06703   1.250   0.769 -0.0001 -0.0001
    18.4  148400 0.06739   1.252   0.763 -0.0001 -0.0001
    18.3  147600 0.06776   1.254   0.756 -0.0001 -0.0001
    18.2  146800 0.06813   1.256   0.750 -0.0001 -0.0001
    18.1  146000 0.06851   1.258   0.746 -0.0001 -0.0001
    18.0  145200 0.06889   1.260   0.742 -0.0001 -0.0001
    17.9  144400 0.06927   1.262   0.737 -0.0001 -0.0001
    17.8  143500 0.06966   1.264   0.733 -0.0001 -0.0001
    17.7  142700 0.07006   1.266   0.729 -0.0001 -0.0001
    17.6  141900 0.07045   1.268   0.724 -0.0001 -0.0001
    17.5  141100 0.07086   1.270   0.720 -0.0001 -0.0001
    17.4  140300 0.07126   1.272   0.718 -0.0001 -0.0001
    17.3  139500 0.07168   1.274   0.715 -0.0001 -0.0001
    17.2  138700 0.07209   1.275   0.712 -0.0001 -0.0001
    17.1  137900 0.07251   1.277   0.709 -0.0001 -0.0001
    17.0  137100 0.07294   1.279   0.707 -0.0001 -0.0001
    16.9  136300 0.07337   1.280   0.706 -0.0001 -0.0001
    16.8  135500 0.07381   1.280   0.705 -0.0001 -0.0001
    16.7  134700 0.07425   1.281   0.704 -0.0001 -0.0001
    16.6  133900 0.07470   1.281   0.704 -0.0001 -0.0001
    16.5  133100 0.07515   1.282   0.704 -0.0001 -0.0001
    16.4  132300 0.07561   1.288   0.705 -0.0001 -0.0001
    16.3  131500 0.07607   1.297   0.707 -0.0001 -0.0001
    16.2  130600 0.07654   1.306   0.709 -0.0001 -0.0001
    16.1  129800 0.07702   1.316   0.710 -0.0001 -0.0001
    16.0  129000 0.07750   1.320   0.705 -0.0001 -0.0001
    15.9  128200 0.07799   1.321   0.699 -0.0001 -0.0001
    15.8  127400 0.07848   1.322   0.692 -0.0001 -0.0001
    15.7  126600 0.07898   1.324   0.686 -0.0001 -0.0001
    15.6  125800 0.07949   1.322   0.679 -0.0001 -0.0001
    15.5  125000 0.08000   1.317   0.672 -0.0001 -0.0001
    15.4  124200 0.08052   1.312   0.665 -0.0001 -0.0001
    15.3  123400 0.08105   1.306   0.657 -0.0001 -0.0001
    15.2  122600 0.08158   1.297   0.652 -0.0001 -0.0001
    15.1  121800 0.08211   1.288   0.651 -0.0001 -0.0001
    15.0  121000 0.08267   1.279   0.652 -0.0001 -0.0001
    14.9  120200 0.08322   1.270   0.658 -0.0001 -0.0001
    14.8  119400 0.08378   1.261   0.663 -0.0001 -0.0001
    14.7  118500 0.08435   1.254   0.669 -0.0001 -0.0001
    14.6  117700 0.08493   1.246   0.674 -0.0001 -0.0001
    14.5  116900 0.08552   1.238   0.680 -0.0001 -0.0001
    14.4  116100 0.08611   1.230   0.689 -0.0001 -0.0001
    14.3  115300 0.08671   1.228   0.702 -0.0001 -0.0001
    14.2  114500 0.08732   1.227   0.716 -0.0001 -0.0001
    14.1  113700 0.08794   1.226   0.729 -0.0001 -0.0001
    14.0  112900 0.08857   1.229   0.741 -0.0001 -0.0001
    13.9  112100 0.08921   1.234   0.751 -0.0001 -0.0001
    13.8  111300 0.08986   1.241   0.762 -0.0001 -0.0001
    13.7  110500 0.09051   1.250   0.773 -0.0001 -0.0001
    13.6  109700 0.09118   1.259   0.783 -0.0001 -0.0001
    13.5  108900 0.09185   1.268   0.792 -0.0001 -0.0001
    13.4  108100 0.09254   1.276   0.801 -0.0001 -0.0001
    13.3  107300 0.09323   1.287   0.810 -0.0001 -0.0001
    13.2  106500 0.09394   1.300   0.816 -0.0001 -0.0001
    13.1  105600 0.09466   1.312   0.820 -0.0001 -0.0001
    13.0  104800 0.09538   1.325   0.825 -0.0001 -0.0001
    12.9  104000 0.09612   1.333   0.829 -0.0001 -0.0001
    12.8  103200 0.09687   1.341   0.833 -0.0001 -0.0001
    12.7  102400 0.09764   1.349   0.835 -0.0001 -0.0001
    12.6  101600 0.09840   1.352   0.836 -0.0001 -0.0001
    12.5  100800 0.09920   1.354   0.838 -0.0001 -0.0001
    12.4  100000  0.1000   1.356   0.840 -0.0001 -0.0001
    12.3   99190  0.1008   1.362   0.843 -0.0001 -0.0001
    12.2   98390  0.1016   1.368   0.846 -0.0001 -0.0001
    12.1   97580  0.1025   1.374   0.850 -0.0001 -0.0001
    12.0   96770  0.1033   1.380   0.853 -0.0001 -0.0001
    11.9   95970  0.1042   1.386   0.855 -0.0001 -0.0001
    11.8   95160  0.1051   1.402   0.858 -0.0001 -0.0001
    11.7   94360  0.1060   1.418   0.860 -0.0001 -0.0001
    11.6   93550  0.1069   1.432   0.859 -0.0001 -0.0001
    11.5   92740  0.1078   1.445   0.854 -0.0001 -0.0001
    11.4   91940  0.1088   1.447   0.849 -0.0001 -0.0001
    11.3   91130  0.1097   1.428   0.845 -0.0001 -0.0001
    11.2   90320  0.1107   1.422   0.842 -0.0001 -0.0001
    11.1   89520  0.1117   1.425   0.849 -0.0001 -0.0001
    11.0   88710  0.1127   1.428   0.858 -0.0001 -0.0001
    10.9   87900  0.1137   1.430   0.867 -0.0001 -0.0001
    10.8   87100  0.1148   1.431   0.875 -0.0001 -0.0001
    10.7   86290  0.1159   1.426   0.885 -0.0001 -0.0001
    10.6   85480  0.1170   1.417   0.899 -0.0001 -0.0001
    10.5   84680  0.1181   1.428   0.916 -0.0001 -0.0001
    10.4   83870  0.1192   1.458   0.933 -0.0001 -0.0001
    10.3   83070  0.1204   1.480   0.948 -0.0001 -0.0001
    10.2   82260  0.1216   1.502   0.961 -0.0001 -0.0001
    10.1   81450  0.1228   1.531   0.974 -0.0001 -0.0001
    10.0   80645  0.1240   1.563   0.989 -0.0001 -0.0001
     9.9   79840  0.1253   1.594   1.004 -0.0001 -0.0001
     9.8   79030  0.1265   1.623   1.009 -0.0001 -0.0001
     9.7   78230  0.1278   1.653   1.008 -0.0001 -0.0001
     9.6   77420  0.1292   1.667   1.003 -0.0001 -0.0001
     9.5   76610  0.1305   1.659   0.997 -0.0001 -0.0001
     9.4   75810  0.1319   1.643   0.984 -0.0001 -0.0001
     9.3   75000  0.1333   1.659   0.968 -0.0001 -0.0001
     9.2   74190  0.1348   1.680   0.963 -0.0001 -0.0001
     9.1   73390  0.1363   1.700   0.977 -0.0001 -0.0001
     9.0   72580  0.1378   1.734   1.000 -0.0001 -0.0001
     8.9   71770  0.1393   1.779   1.024 -0.0001 -0.0001
     8.8   70970  0.1409   1.828   1.015 -0.0001 -0.0001
     8.7   70160  0.1425   1.877   1.000 -0.0001 -0.0001
     8.6   69360  0.1442   1.926   0.977 -0.0001 -0.0001
     8.5   68550  0.1459   1.951   0.928 -0.0001 -0.0001
     8.4   67740  0.1476   1.942   0.857 -0.0001 -0.0001
     8.3   66940  0.1494   1.920   0.788 -0.0001 -0.0001
     8.2   66140  0.1512   1.893   0.727 -0.0001 -0.0001
     8.1   65320  0.1531   1.865   0.679 -0.0001 -0.0001
     8.0   64520  0.1550   1.838   0.672 -0.0001 -0.0001
     7.9   63710  0.1570   1.808   0.666 -0.0001 -0.0001
     7.8   62910  0.1590   1.777   0.659 -0.0001 -0.0001
     7.7   62100  0.1610   1.746   0.645 -0.0001 -0.0001
     7.6   61290  0.1632   1.715   0.631 -0.0001 -0.0001
     7.5   60480  0.1653   1.689   0.627 -0.0001 -0.0001
     7.4   59680  0.1676   1.663   0.643 -0.0001 -0.0001
     7.3   58870  0.1699   1.637   0.660 -0.0001 -0.0001
     7.2   58070  0.1722   1.612   0.674 -0.0001 -0.0001
     7.1   57260  0.1746   1.587   0.688 -0.0001 -0.0001
     7.0   56450  0.1771   1.563   0.703 -0.0001 -0.0001
     6.9   55650  0.1797   1.495   0.724 -0.0001 -0.0001
     6.8   54840  0.1824   1.452   0.838 -0.0001 -0.0001
     6.7   54030  0.1851   1.438   0.878 -0.0001 -0.0001
     6.6   53230  0.1879   1.558   0.940 -0.0001 -0.0001
     6.5   52420  0.1908   1.624   1.099 -0.0001 -0.0001
     6.4   51610  0.1937   1.688   1.106 -0.0001 -0.0001
     6.3   50810  0.1968   1.721   1.105 -0.0001 -0.0001
     6.2   50000  0.2000   1.753   1.101 -0.0001 -0.0001
     6.1   49190  0.2033   1.768   1.095 -0.0001 -0.0001
     6.0   48390  0.2067   1.770   1.089 -0.0001 -0.0001
     5.9   47580  0.2102   1.760   1.086 -0.0001 -0.0001
     5.8   46770  0.2138   1.745   1.086 -0.0001 -0.0001
     5.7   45970  0.2175   1.722   1.089 -0.0001 -0.0001
     5.6   45160  0.2214   1.696   1.130 -0.0001 -0.0001
     5.5   44360  0.2255   1.664   1.269 -0.0001 -0.0001
     5.4   43550  0.2296   1.719   1.438 -0.0001 -0.0001
     5.3   42740  0.2340   1.905   1.482 -0.0001 -0.0001
     5.2   41940  0.2385   2.025   1.484 -0.0001 -0.0001
     5.1   41130  0.2431   2.085   1.474 -0.0001 -0.0001
     5.0   40320  0.2480   2.139   1.474 -0.0001 -0.0001
     4.9   39520  0.2531   2.218   1.552 -0.0001 -0.0001
     4.8   38710  0.2583   2.329   1.582 -0.0001 -0.0001
     4.7   37900  0.2638   2.482   1.570 -0.0001 -0.0001
     4.6   37100  0.2696   2.731   1.517 -0.0001 -0.0001
     4.5   36290  0.2756   2.785   1.436 -0.0001 -0.0001
     4.4   35480  0.2818   2.840   1.361 -0.0001 -0.0001
     4.3   34680  0.2884   2.909   1.277 -0.0001 -0.0001
     4.2   33870  0.2952   2.962   1.190 -0.0001 -0.0001
     4.1   33070  0.3024   3.026   1.145 -0.0001 -0.0001
     4.0   32260  0.3100   3.158   1.100 -0.0001 -0.0001
     3.9   31450  0.3179   3.250   1.045 -0.0001 -0.0001
     3.8   30650  0.3263   3.297   0.980 -0.0001 -0.0001
     3.7   29840  0.3351   3.320   0.854 -0.0001 -0.0001
     3.6   29030  0.3444   3.275   0.463 -0.0001 -0.0001
     3.5   28230  0.3543   3.180   0.245 -0.0001 -0.0001
     3.4   27420  0.3647   2.974   0.164 -0.0001 -0.0001
     3.3   26610  0.3758   2.812   0.112 -0.0001 -0.0001
     3.2   25810  0.3875   2.773   0.083 -0.0001 -0.0001
     3.1   25000  0.4000   2.745   0.058 -0.0001 -0.0001
     3.0   24190  0.4133   2.727   0.048   2.630 -0.0001
     2.9   23390  0.4276   2.712   0.038   2.587 -0.0001
     2.8   22580  0.4429   2.669   0.028   2.558 -0.0001
     2.7   21770  0.4593   2.610   0.019   2.528 -0.0001
     2.6   20970  0.4769   2.581   0.015   2.504 -0.0001
     2.5   20150  0.4960   2.552   0.011   2.481 -0.0001
     2.4   19360  0.5167   2.524 -0.0001   2.462 -0.0001
     2.3   18550  0.5391   2.495 -0.0001   2.443 -0.0001
     2.2   17740  0.5636   2.475 -0.0001   2.426 -0.0001
     2.1   16940  0.5905   2.456 -0.0001   2.410 -0.0001
     2.0   16130  0.6200   2.437 -0.0001   2.394 -0.0001
     1.9   15320  0.6526 -0.0001 -0.0001   2.382 -0.0001
     1.8   14520  0.6889 -0.0001 -0.0001   2.369 -0.0001
     1.7   13710  0.7294 -0.0001 -0.0001   2.358 -0.0001
     1.6   12900  0.7750 -0.0001 -0.0001   2.348 -0.0001
     1.5   12100  0.8267 -0.0001 -0.0001   2.339 -0.0001
     1.4   11290  0.8857 -0.0001 -0.0001   2.330 -0.0001
     1.3   10480  0.9538 -0.0001 -0.0001   2.321 -0.0001
     1.2    9677   1.033 -0.0001 -0.0001   2.312 -0.0001
     1.1    8871   1.127 -0.0001 -0.0001   2.305 -0.0001
     1.0   80645   1.240 -0.0001 -0.0001   2.300 -0.0001
  0.8928    7200   1.389   2.268 -0.0001 -0.0001 -0.0001
  0.8804    7100   1.408   2.268 -0.0001 -0.0001 -0.0001
  0.8680    7000   1.429   2.267 -0.0001 -0.0001 -0.0001
  0.8556    6900   1.449   2.267 -0.0001 -0.0001 -0.0001
  0.8432    6800   1.471   2.267 -0.0001 -0.0001 -0.0001
  0.8308    6700   1.493   2.266 -0.0001 -0.0001 -0.0001
  0.8184    6600   1.515   2.266 -0.0001 -0.0001 -0.0001
  0.8060    6500   1.538   2.265 -0.0001 -0.0001 -0.0001
  0.7936    6400   1.563   2.265 -0.0001 -0.0001 -0.0001
  0.7812    6300   1.587   2.264 -0.0001 -0.0001 -0.0001
  0.7688    6200   1.613   2.264 -0.0001 -0.0001 -0.0001
  0.7564    6100   1.639   2.263 -0.0001 -0.0001 -0.0001
  0.7440    6000   1.667   2.263 -0.0001 -0.0001 -0.0001
  0.7316    5900   1.695   2.262 -0.0001 -0.0001 -0.0001
  0.7192    5800   1.724   2.261 -0.0001 -0.0001 -0.0001
  0.7068    5700   1.754   2.261 -0.0001 -0.0001 -0.0001
  0.6944    5600   1.786   2.260 -0.0001 -0.0001 -0.0001
  0.6820    5500   1.818   2.259 -0.0001 -0.0001 -0.0001
  0.6696    5400   1.852   2.259 -0.0001 -0.0001 -0.0001
  0.6448    5200   1.923   2.257 -0.0001 -0.0001 -0.0001
  0.6324    5100   1.961   2.256 -0.0001 -0.0001 -0.0001
  0.6200    5000   2.000   2.255 -0.0001 -0.0001 -0.0001
  0.6076    4900   2.041   2.254 -0.0001 -0.0001 -0.0001
  0.5952    4800   2.083   2.253 -0.0001 -0.0001 -0.0001
  0.5828    4700   2.128   2.251 -0.0001 -0.0001 -0.0001
  0.5704    4600   2.174   2.250 -0.0001 -0.0001 -0.0001
  0.5580    4500   2.222   2.249 -0.0001 -0.0001 -0.0001
  0.5456    4400   2.273   2.247 -0.0001 -0.0001 -0.0001
  0.5332    4300   2.326   2.246 -0.0001 -0.0001 -0.0001
  0.5208    4200   2.381   2.244 -0.0001 -0.0001 -0.0001
  0.5084    4100   2.439   2.242 -0.0001 -0.0001 -0.0001
  0.4960    4000   2.500   2.240 -0.0001 -0.0001 -0.0001
  0.4836    3900   2.564   2.238 -0.0001 -0.0001 -0.0001
  0.4712    3800   2.632   2.236 -0.0001 -0.0001 -0.0001
  0.4588    3700   2.703   2.233 -0.0001 -0.0001 -0.0001
  0.4464    3600   2.778   2.231 -0.0001 -0.0001 -0.0001
  0.4340    3500   2.857   2.228 -0.0001 -0.0001 -0.0001
  0.4216    3400   2.941   2.225 -0.0001 -0.0001 -0.0001
  0.4092    3300   3.030   2.221 -0.0001 -0.0001 -0.0001
  0.3968    3200   3.125   2.217 -0.0001 -0.0001 -0.0001
  0.3844    3100   3.226   2.213 -0.0001 -0.0001 -0.0001
  0.3720    3000   3.333   2.209 -0.0001 -0.0001 -0.0001
  0.3596    2900   3.448   2.203 -0.0001 -0.0001 -0.0001
  0.3472    2800   3.571   2.198 -0.0001 -0.0001 -0.0001
  0.3348    2700   3.704   2.191 -0.0001 -0.0001 -0.0001
  0.3224    2600   3.846   2.184 -0.0001 -0.0001 -0.0001
  0.3100    2500   4.000   2.176 -0.0001 -0.0001 -0.0001
  0.2976    2400   4.167   2.167 -0.0001 -0.0001 -0.0001
  0.2852    2300   4.348   2.156 -0.0001 -0.0001 -0.0001
